Data from FLMS187131_14-18-58-805.txt Node
Date: Mon Dec 23 14:18:58 MSK 2024
User: FemtoLab1
Spectrometer: FLMS18713
Trigger mode: 0
Integration Time (sec): 2,200000E-2
Scans to average: 1
Electric dark correction enabled: true
Nonlinearity correction enabled: false
Boxcar width: 0
XAxis mode: Wavelengths
Number of Pixels in Spectrum: 2048
>>>>>Begin Spectral Data<<<<<
190,252	-11,89
190,715	-11,89
191,177	-11,89
191,64	-125,55
192,102	-81,08
192,565	-51,43
193,027	-90,96
193,49	-118,14
193,952	-53,9
194,415	-81,08
194,877	-6,95
195,339	-46,48
195,802	-2,01
196,264	-29,19
196,726	42,47
197,188	-14,36
197,65	-4,48
198,112	52,35
198,574	91,89
199,036	188,25
199,498	124,01
199,96	173,42
200,421	198,13
200,883	242,61
201,345	235,2
201,807	306,85
202,268	262,38
202,73	334,03
203,191	287,08
203,653	358,74
204,114	324,15
204,576	301,91
205,037	304,38
205,498	418,04
205,96	400,74
206,421	413,1
206,882	420,51
207,343	343,91
207,804	425,45
208,265	331,56
208,726	437,81
209,187	484,75
209,648	437,81
210,109	388,39
210,57	410,63
211,031	351,33
211,492	363,68
211,952	390,86
212,413	390,86
212,874	361,21
213,334	341,44
213,795	418,04
214,255	390,86
214,716	366,15
215,176	415,57
215,636	385,92
216,097	489,7
216,557	450,16
217,017	418,04
217,477	373,57
217,938	378,51
218,398	420,51
218,858	385,92
219,318	351,33
219,778	388,39
220,238	341,44
220,698	415,57
221,157	388,39
221,617	415,57
222,077	420,51
222,537	390,86
222,996	403,22
223,456	440,28
223,915	378,51
224,375	321,68
224,834	385,92
225,294	432,87
225,753	306,85
226,213	356,27
226,672	445,22
227,131	393,33
227,59	403,22
228,05	319,21
228,509	427,92
228,968	358,74
229,427	368,62
229,886	378,51
230,345	366,15
230,804	395,8
231,263	380,98
231,721	346,39
232,18	445,22
232,639	388,39
233,098	338,97
233,556	420,51
234,015	338,97
234,473	343,91
234,932	445,22
235,39	326,62
235,849	376,04
236,307	400,74
236,765	378,51
237,224	427,92
237,682	408,16
238,14	452,63
238,598	385,92
239,056	405,69
239,514	361,21
239,972	420,51
240,43	403,22
240,888	353,8
241,346	447,69
241,804	371,09
242,262	351,33
242,72	378,51
243,177	403,22
243,635	385,92
244,093	331,56
244,55	405,69
245,008	435,34
245,465	442,75
245,923	358,74
246,38	376,04
246,837	442,75
247,295	413,1
247,752	447,69
248,209	435,34
248,666	403,22
249,123	373,57
249,58	403,22
250,037	395,8
250,494	447,69
250,951	393,33
251,408	437,81
251,865	403,22
252,322	442,75
252,779	420,51
253,235	393,33
253,692	395,8
254,149	358,74
254,605	358,74
255,062	400,74
255,518	413,1
255,975	383,45
256,431	440,28
256,887	321,68
257,344	395,8
257,8	452,63
258,256	457,58
258,712	380,98
259,168	435,34
259,625	477,34
260,081	348,86
260,537	435,34
260,992	410,63
261,448	432,87
261,904	464,99
262,36	420,51
262,816	408,16
263,272	440,28
263,727	427,92
264,183	467,46
264,638	395,8
265,094	405,69
265,549	405,69
266,005	366,15
266,46	460,05
266,916	373,57
267,371	447,69
267,826	403,22
268,281	418,04
268,737	484,75
269,192	418,04
269,647	371,09
270,102	398,27
270,557	331,56
271,012	338,97
271,467	385,92
271,921	410,63
272,376	380,98
272,831	405,69
273,286	405,69
273,74	388,39
274,195	361,21
274,649	385,92
275,104	452,63
275,558	373,57
276,013	390,86
276,467	346,39
276,922	447,69
277,376	383,45
277,83	413,1
278,284	376,04
278,739	452,63
279,193	524,29
279,647	408,16
280,101	462,52
280,555	427,92
281,009	398,27
281,462	383,45
281,916	539,11
282,37	437,81
282,824	410,63
283,278	455,1
283,731	447,69
284,185	435,34
284,638	420,51
285,092	405,69
285,545	383,45
285,999	435,34
286,452	467,46
286,905	395,8
287,359	413,1
287,812	368,62
288,265	452,63
288,718	351,33
289,171	368,62
289,624	413,1
290,077	351,33
290,53	462,52
290,983	390,86
291,436	361,21
291,889	338,97
292,342	410,63
292,794	393,33
293,247	484,75
293,7	380,98
294,152	415,57
294,605	504,52
295,057	422,98
295,51	506,99
295,962	464,99
296,414	353,8
296,867	447,69
297,319	467,46
297,771	351,33
298,223	457,58
298,675	442,75
299,128	430,4
299,58	371,09
300,032	440,28
300,483	435,34
300,935	452,63
301,387	430,4
301,839	445,22
302,291	509,46
302,742	403,22
303,194	343,91
303,646	361,21
304,097	447,69
304,549	400,74
305	403,22
305,451	422,98
305,903	450,16
306,354	440,28
306,805	390,86
307,257	472,4
307,708	432,87
308,159	460,05
308,61	445,22
309,061	460,05
309,512	437,81
309,963	422,98
310,414	455,1
310,865	413,1
311,315	440,28
311,766	410,63
312,217	403,22
312,668	413,1
313,118	418,04
313,569	341,44
314,019	395,8
314,47	442,75
314,92	413,1
315,37	425,45
315,821	460,05
316,271	393,33
316,721	452,63
317,171	373,57
317,622	422,98
318,072	400,74
318,522	437,81
318,972	462,52
319,422	497,11
319,872	487,23
320,321	484,75
320,771	415,57
321,221	422,98
321,671	445,22
322,12	380,98
322,57	472,4
323,019	408,16
323,469	472,4
323,918	497,11
324,368	425,45
324,817	363,68
325,267	420,51
325,716	521,82
326,165	469,93
326,614	418,04
327,063	472,4
327,512	489,7
327,961	482,28
328,41	376,04
328,859	460,05
329,308	427,92
329,757	430,4
330,206	418,04
330,655	422,98
331,103	455,1
331,552	440,28
332,001	455,1
332,449	489,7
332,898	472,4
333,346	422,98
333,794	395,8
334,243	482,28
334,691	410,63
335,139	398,27
335,588	398,27
336,036	462,52
336,484	378,51
336,932	420,51
337,38	380,98
337,828	415,57
338,276	457,58
338,724	420,51
339,172	405,69
339,619	435,34
340,067	437,81
340,515	445,22
340,962	395,8
341,41	467,46
341,858	388,39
342,305	415,57
342,753	462,52
343,2	408,16
343,647	415,57
344,095	460,05
344,542	502,05
344,989	492,17
345,436	464,99
345,883	353,8
346,33	469,93
346,777	457,58
347,224	462,52
347,671	452,63
348,118	427,92
348,565	410,63
349,012	450,16
349,458	432,87
349,905	427,92
350,352	460,05
350,798	361,21
351,245	420,51
351,691	363,68
352,138	420,51
352,584	425,45
353,03	410,63
353,477	430,4
353,923	383,45
354,369	455,1
354,815	437,81
355,261	464,99
355,707	469,93
356,153	442,75
356,599	492,17
357,045	420,51
357,491	422,98
357,937	430,4
358,382	353,8
358,828	442,75
359,274	425,45
359,719	467,46
360,165	440,28
360,61	452,63
361,056	467,46
361,501	492,17
361,947	420,51
362,392	445,22
362,837	492,17
363,282	460,05
363,727	418,04
364,173	484,75
364,618	447,69
365,063	447,69
365,508	445,22
365,952	455,1
366,397	477,34
366,842	440,28
367,287	440,28
367,732	373,57
368,176	462,52
368,621	450,16
369,065	395,8
369,51	425,45
369,954	452,63
370,399	398,27
370,843	361,21
371,287	442,75
371,732	462,52
372,176	403,22
372,62	469,93
373,064	420,51
373,508	373,57
373,952	457,58
374,396	497,11
374,84	400,74
375,284	440,28
375,728	452,63
376,172	450,16
376,615	455,1
377,059	415,57
377,503	435,34
377,946	393,33
378,39	400,74
378,833	408,16
379,277	467,46
379,72	413,1
380,163	432,87
380,607	455,1
381,05	410,63
381,493	445,22
381,936	472,4
382,379	502,05
382,822	413,1
383,265	410,63
383,708	398,27
384,151	447,69
384,594	383,45
385,037	368,62
385,479	484,75
385,922	440,28
386,365	494,64
386,807	467,46
387,25	415,57
387,692	467,46
388,135	435,34
388,577	472,4
389,019	464,99
389,461	442,75
389,904	455,1
390,346	472,4
390,788	442,75
391,23	506,99
391,672	427,92
392,114	422,98
392,556	338,97
392,998	422,98
393,44	405,69
393,881	464,99
394,323	422,98
394,765	450,16
395,206	472,4
395,648	422,98
396,09	472,4
396,531	422,98
396,972	464,99
397,414	393,33
397,855	472,4
398,296	408,16
398,738	472,4
399,179	408,16
399,62	427,92
400,061	477,34
400,502	469,93
400,943	452,63
401,384	435,34
401,825	450,16
402,265	469,93
402,706	385,92
403,147	418,04
403,588	502,05
404,028	390,86
404,469	474,87
404,909	368,62
405,35	420,51
405,79	373,57
406,23	469,93
406,671	408,16
407,111	460,05
407,551	450,16
407,991	413,1
408,431	390,86
408,871	464,99
409,311	450,16
409,751	405,69
410,191	388,39
410,631	455,1
411,071	432,87
411,511	420,51
411,95	403,22
412,39	469,93
412,83	427,92
413,269	462,52
413,709	425,45
414,148	521,82
414,587	464,99
415,027	460,05
415,466	408,16
415,905	418,04
416,345	457,58
416,784	393,33
417,223	430,4
417,662	494,64
418,101	499,58
418,54	435,34
418,979	452,63
419,417	435,34
419,856	393,33
420,295	474,87
420,734	457,58
421,172	467,46
421,611	418,04
422,049	502,05
422,488	447,69
422,926	420,51
423,364	474,87
423,803	395,8
424,241	467,46
424,679	455,1
425,117	464,99
425,555	502,05
425,994	408,16
426,432	405,69
426,87	437,81
427,307	413,1
427,745	452,63
428,183	405,69
428,621	418,04
429,058	464,99
429,496	497,11
429,934	437,81
430,371	442,75
430,809	445,22
431,246	462,52
431,684	445,22
432,121	440,28
432,558	467,46
432,995	437,81
433,433	442,75
433,87	398,27
434,307	450,16
434,744	430,4
435,181	405,69
435,618	502,05
436,055	440,28
436,491	425,45
436,928	435,34
437,365	497,11
437,801	472,4
438,238	494,64
438,675	516,88
439,111	432,87
439,548	460,05
439,984	497,11
440,42	521,82
440,857	455,1
441,293	536,64
441,729	445,22
442,165	524,29
442,601	432,87
443,037	422,98
443,473	499,58
443,909	536,64
444,345	511,93
444,781	502,05
445,217	502,05
445,652	469,93
446,088	460,05
446,524	457,58
446,959	477,34
447,395	477,34
447,83	460,05
448,266	489,7
448,701	519,35
449,136	504,52
449,572	529,23
450,007	529,23
450,442	455,1
450,877	479,81
451,312	447,69
451,747	469,93
452,182	514,41
452,617	487,23
453,052	464,99
453,486	415,57
453,921	450,16
454,356	482,28
454,79	504,52
455,225	511,93
455,66	511,93
456,094	445,22
456,528	467,46
456,963	398,27
457,397	497,11
457,831	447,69
458,265	477,34
458,7	474,87
459,134	479,81
459,568	509,46
460,002	440,28
460,436	440,28
460,87	418,04
461,303	484,75
461,737	474,87
462,171	460,05
462,605	504,52
463,038	489,7
463,472	526,76
463,905	506,99
464,339	440,28
464,772	422,98
465,205	440,28
465,639	479,81
466,072	455,1
466,505	425,45
466,938	492,17
467,371	489,7
467,804	489,7
468,237	521,82
468,67	447,69
469,103	477,34
469,536	484,75
469,969	499,58
470,402	487,23
470,834	474,87
471,267	514,41
471,699	497,11
472,132	460,05
472,564	484,75
472,997	477,34
473,429	571,24
473,861	479,81
474,294	563,82
474,726	467,46
475,158	430,4
475,59	566,29
476,022	553,94
476,454	511,93
476,886	573,71
477,318	534,17
477,75	509,46
478,181	576,18
478,613	506,99
479,045	605,83
479,476	566,29
479,908	628,07
480,339	637,95
480,771	613,24
481,202	628,07
481,634	642,89
482,065	677,48
482,496	746,67
482,927	818,32
483,358	988,81
483,789	996,23
484,22	1137,07
484,651	1280,38
485,082	1460,75
485,513	1727,6
485,944	2043,88
486,375	2439,22
486,805	2713,48
487,236	3378,15
487,667	4010,69
488,097	4534,52
488,527	5290,61
488,958	6202,36
489,388	7138,82
489,819	8186,47
490,249	8903,02
490,679	10353,43
491,109	11297,3
491,539	12374,6
491,969	13832,42
492,399	15104,92
492,829	16861,71
493,259	17976,07
493,689	19967,6
494,119	21259,87
494,548	23656,61
494,978	26026,18
495,408	28067,12
495,837	29873,33
496,267	31872,27
496,696	33638,95
497,126	35922,03
497,555	37130,29
497,984	38555,99
498,413	40134,88
498,843	41323,37
499,272	42395,73
499,701	43930,14
500,13	45546,09
500,559	47073,09
500,988	47641,39
501,417	48572,91
501,845	49929,42
502,274	50490,31
502,703	50858,47
503,131	51735,63
503,56	51607,14
503,988	51491,01
504,417	51310,64
504,845	51219,22
505,274	50757,16
505,702	50959,78
506,13	50591,62
506,558	50292,64
506,987	50193,8
507,415	49803,41
507,843	49721,87
508,271	49143,68
508,699	49862,71
509,126	50243,22
509,554	50858,47
509,982	50729,98
510,41	50969,66
510,837	51495,96
511,265	50895,53
511,693	52019,78
512,12	51026,49
512,547	51609,62
512,975	50954,83
513,402	50569,38
513,829	50638,56
514,257	50369,24
514,684	49188,16
515,111	48874,36
515,538	47974,96
515,965	47594,44
516,392	46917,43
516,819	46623,39
517,246	45758,59
517,672	44696,11
518,099	43996,85
518,526	43485,38
518,952	42766,36
519,379	42284,54
519,805	41422,2
520,232	40572,22
520,658	39779,07
521,085	40016,27
521,511	39030,39
521,937	38444,8
522,363	38548,57
522,789	37239,01
523,215	36804,14
523,641	36759,66
524,067	35954,16
524,493	35778,72
524,919	35015,22
525,345	34916,39
525,771	34656,95
526,196	34382,68
526,622	35064,64
527,047	35015,22
527,473	35484,69
527,898	36099,94
528,324	36883,2
528,749	37263,72
529,174	38271,84
529,6	38896,97
530,025	39603,64
530,45	40604,34
530,875	41130,64
531,3	41664,35
531,725	42183,23
532,15	41997,91
532,575	42158,52
532,999	41812,6
533,424	41525,98
533,849	40851,43
534,273	39623,4
534,698	39331,84
535,122	37854,26
535,547	36465,63
535,971	35259,84
536,396	33295,49
536,82	32042,76
537,244	31664,72
537,668	30051,24
538,092	28786,15
538,517	28269,74
538,941	27236,91
539,364	25349,16
539,788	24239,74
540,212	23053,72
540,636	21674,97
541,06	21227,74
541,483	20402,47
541,907	19594,5
542,331	18986,66
542,754	17941,48
543,178	16646,74
543,601	15398,95
544,024	14356,24
544,448	13449,43
544,871	12888,54
545,294	12527,8
545,717	11981,73
546,14	11939,73
546,563	11443,08
546,986	10958,79
547,409	10407,79
547,832	10022,33
548,255	9664,05
548,677	9041,39
549,1	8660,88
549,522	8082,69
549,945	7514,39
550,368	7153,64
550,79	6367,91
551,212	5792,19
551,635	5438,86
552,057	5204,12
552,479	5488,28
552,901	5816,9
553,323	6160,35
553,745	6839,84
554,167	7388,38
554,589	7684,88
555,011	8006,1
555,433	8356,96
555,855	8606,52
556,277	9271,18
556,698	9908,67
557,12	10855,01
557,541	12043,5
557,963	12624,16
558,384	13370,36
558,806	14030,09
559,227	14786,18
559,648	15389,07
560,069	15310
560,49	14823,24
560,912	13797,83
561,333	12525,33
561,754	11205,88
562,174	10024,8
562,595	8720,18
563,016	7489,68
563,437	6508,75
563,858	5824,31
564,278	5639
564,699	5302,96
565,119	5206,6
565,54	5263,43
565,96	5470,98
566,38	5723,01
566,801	5920,68
567,221	6130,7
567,641	6118,35
568,061	6439,56
568,481	6402,5
568,901	6278,95
569,321	6236,95
569,741	5913,27
570,161	5856,44
570,581	5651,35
571,001	5599,46
571,42	5344,96
571,84	5194,24
572,259	5214,01
572,679	5053,4
573,098	5164,59
573,518	5078,11
573,937	5263,43
574,356	5218,95
574,775	5461,1
575,195	5490,75
575,614	5498,16
576,033	5377,09
576,452	5883,62
576,871	6024,45
577,29	6434,62
577,708	6572,99
578,127	6748,42
578,546	6701,47
578,964	6385,2
579,383	6190
579,801	5883,62
580,22	5725,48
580,638	5631,59
581,057	5967,62
581,475	6044,22
581,893	6148
582,311	6123,29
582,73	6066,46
583,148	5903,38
583,566	5723,01
583,984	5295,55
584,401	5372,14
584,819	5354,85
585,237	5495,69
585,655	5844,08
586,072	6101,05
586,49	6439,56
586,908	6550,75
587,325	6619,94
587,742	6785,48
588,16	6597,7
588,577	6286,37
588,994	5849,02
589,412	5503,1
589,829	5268,37
590,246	4803,84
590,663	4806,31
591,08	4361,56
591,497	4593,82
591,914	4613,59
592,33	4831,02
592,747	5100,35
593,164	5134,94
593,58	5260,95
593,997	5260,95
594,413	5389,44
594,83	5606,88
595,246	5614,29
595,663	5821,84
596,079	5624,17
596,495	5584,64
596,911	5184,36
597,327	4969,39
597,743	4569,11
598,159	4020,58
598,575	3645
598,991	3217,54
599,407	3007,52
599,823	2728,31
600,238	2696,19
600,654	2859,26
601,07	2659,12
601,485	2609,71
601,901	2523,23
602,316	2281,08
602,731	2174,83
603,147	2113,06
603,562	2009,28
603,977	2031,52
604,392	2093,29
604,807	2192,13
605,222	2340,38
605,637	2347,79
606,052	2412,04
606,467	2365,09
606,882	2340,38
607,296	2340,38
607,711	2308,26
608,125	2197,07
608,54	2234,13
608,954	2108,12
609,369	2043,88
609,783	1972,22
610,197	1863,5
610,612	1821,5
611,026	1685,6
611,44	1554,64
611,854	1606,53
612,268	1453,34
612,682	1384,15
613,096	1364,39
613,51	1260,61
613,923	1344,62
614,337	1282,85
614,751	1272,96
615,164	1277,91
615,578	1295,2
615,991	1312,5
616,405	1169,19
616,818	1188,95
617,231	1245,78
617,645	1149,42
618,058	1208,72
618,471	1156,83
618,884	1196,37
619,297	1139,54
619,71	1156,83
620,123	1072,82
620,536	1011,05
620,948	1050,58
621,361	929,51
621,774	996,23
622,186	988,81
622,599	988,81
623,011	1003,64
623,424	1060,47
623,836	1075,29
624,248	1055,53
624,661	1060,47
625,073	1023,41
625,485	1161,77
625,897	1045,64
626,309	1179,07
626,721	1132,12
627,133	1230,96
627,545	1201,31
627,956	1203,78
628,368	1250,73
628,78	1290,26
629,191	1235,9
629,603	1230,96
630,014	1450,87
630,426	1482,99
630,837	1384,15
631,248	1440,98
631,66	1527,46
632,071	1529,93
632,482	1520,05
632,893	1544,76
633,304	1668,3
633,715	1685,6
634,126	1757,25
634,536	1767,14
634,947	1898,09
635,358	1890,68
635,769	1932,69
636,179	1885,74
636,59	1841,26
637	1846,21
637,41	1823,97
637,821	1774,55
638,231	1653,48
638,641	1438,51
639,051	1421,22
639,462	1290,26
639,872	1275,43
640,282	1230,96
640,691	1087,65
641,101	1129,65
641,511	1043,17
641,921	1030,82
642,331	993,75
642,74	956,69
643,15	949,28
643,559	845,5
643,969	880,09
644,378	870,21
644,787	907,27
645,197	951,75
645,606	1023,41
646,015	1015,99
646,424	966,58
646,833	1060,47
647,242	988,81
647,651	1033,29
648,06	1144,48
648,469	1109,89
648,877	1077,76
649,286	1095,06
649,694	1107,41
650,103	1104,94
650,512	1092,59
650,92	1104,94
651,328	1159,3
651,737	1184,01
652,145	1164,25
652,553	1221,08
652,961	1198,84
653,369	1230,96
653,777	1154,36
654,185	1203,78
654,593	1226,02
655,001	1319,91
655,409	1364,39
655,816	1406,39
656,224	1426,16
656,631	1569,47
657,039	1641,12
657,446	1707,84
657,854	1868,44
658,261	1774,55
658,668	1856,09
659,076	1831,38
659,483	1885,74
659,89	1989,52
660,297	1947,51
660,704	1905,51
661,111	2021,64
661,518	1989,52
661,924	1917,86
662,331	1816,56
662,738	1875,86
663,144	1779,49
663,551	1670,77
663,957	1628,77
664,364	1554,64
664,77	1490,4
665,177	1436,04
665,583	1337,21
665,989	1332,26
666,395	1216,13
666,801	1090,12
667,207	1097,53
667,613	1102,47
668,019	996,23
668,425	1055,53
668,83	1058
669,236	1085,18
669,642	1122,24
670,047	1179,07
670,453	1154,36
670,858	1060,47
671,264	1104,94
671,669	1077,76
672,074	1092,59
672,48	1011,05
672,885	1092,59
673,29	966,58
673,695	892,45
674,1	939,4
674,505	973,99
674,909	894,92
675,314	838,09
675,719	796,08
676,124	773,85
676,528	712,08
676,933	721,96
677,337	773,85
677,742	652,77
678,146	697,25
678,55	689,84
678,955	620,65
679,359	618,18
679,763	605,83
680,167	593,47
680,571	556,41
680,975	605,83
681,379	583,59
681,782	573,71
682,186	561,35
682,59	529,23
682,993	593,47
683,397	551,47
683,8	546,53
684,204	536,64
684,607	549
685,011	615,71
685,414	556,41
685,817	593,47
686,22	637,95
686,623	598,41
687,026	534,17
687,429	583,59
687,832	595,94
688,235	588,53
688,638	593,47
689,04	576,18
689,443	536,64
689,845	618,18
690,248	578,65
690,65	600,89
691,053	544,06
691,455	573,71
691,857	608,3
692,26	479,81
692,662	546,53
693,064	571,24
693,466	551,47
693,868	608,3
694,27	578,65
694,671	593,47
695,073	556,41
695,475	566,29
695,877	628,07
696,278	603,36
696,68	655,24
697,081	534,17
697,483	598,41
697,884	598,41
698,285	595,94
698,686	573,71
699,087	615,71
699,489	721,96
699,89	613,24
700,291	573,71
700,691	670,07
701,092	593,47
701,493	610,77
701,894	610,77
702,294	600,89
702,695	615,71
703,096	630,54
703,496	645,36
703,896	556,41
704,297	576,18
704,697	573,71
705,097	511,93
705,497	529,23
705,897	642,89
706,297	534,17
706,697	546,53
707,097	541,58
707,497	563,82
707,897	615,71
708,297	472,4
708,696	608,3
709,096	551,47
709,495	615,71
709,895	588,53
710,294	625,59
710,694	628,07
711,093	546,53
711,492	633,01
711,891	578,65
712,29	633,01
