Data from FLMS187131_14-49-51-789.txt Node
Date: Mon Dec 23 14:49:51 MSK 2024
User: FemtoLab1
Spectrometer: FLMS18713
Trigger mode: 0
Integration Time (sec): 1,350000E-1
Scans to average: 1
Electric dark correction enabled: true
Nonlinearity correction enabled: false
Boxcar width: 0
XAxis mode: Wavelengths
Number of Pixels in Spectrum: 2048
>>>>>Begin Spectral Data<<<<<
190,252	-67,95
190,715	-67,95
191,177	-67,95
191,64	-38,3
192,102	-105,01
192,565	-107,48
193,027	-137,13
193,49	-102,54
193,952	-48,18
194,415	-97,6
194,877	-53,12
195,339	-18,53
195,802	-70,42
196,264	-3,71
196,726	-23,47
197,188	18,53
197,65	75,36
198,112	97,6
198,574	107,48
199,036	176,67
199,498	186,55
199,96	147,02
200,421	171,73
200,883	166,78
201,345	329,86
201,807	354,57
202,268	305,15
202,73	342,22
203,191	275,5
203,653	297,74
204,114	394,1
204,576	374,34
205,037	344,69
205,498	394,1
205,96	396,58
206,421	394,1
206,882	468,23
207,343	463,29
207,804	453,41
208,265	361,98
208,726	384,22
209,187	391,63
209,648	443,52
210,109	463,29
210,57	507,76
211,031	394,1
211,492	438,58
211,952	408,93
212,413	394,1
212,874	475,64
213,334	394,1
213,795	396,58
214,255	421,28
214,716	394,1
215,176	416,34
215,636	492,94
216,097	386,69
216,557	463,29
217,017	428,7
217,477	327,39
217,938	423,75
218,398	376,81
218,858	374,34
219,318	381,75
219,778	361,98
220,238	413,87
220,698	416,34
221,157	384,22
221,617	349,63
222,077	374,34
222,537	403,99
222,996	401,52
223,456	359,51
223,915	376,81
224,375	389,16
224,834	354,57
225,294	354,57
225,753	401,52
226,213	386,69
226,672	416,34
227,131	349,63
227,59	354,57
228,05	384,22
228,509	381,75
228,968	416,34
229,427	391,63
229,886	369,4
230,345	423,75
230,804	339,75
231,263	381,75
231,721	408,93
232,18	386,69
232,639	374,34
233,098	376,81
233,556	379,28
234,015	347,16
234,473	357,04
234,932	428,7
235,39	416,34
235,849	416,34
236,307	436,11
236,765	445,99
237,224	416,34
237,682	406,46
238,14	396,58
238,598	406,46
239,056	445,99
239,514	312,57
239,972	436,11
240,43	347,16
240,888	406,46
241,346	366,92
241,804	399,05
242,262	411,4
242,72	441,05
243,177	470,7
243,635	381,75
244,093	376,81
244,55	463,29
245,008	433,64
245,465	463,29
245,923	354,57
246,38	401,52
246,837	473,17
247,295	433,64
247,752	403,99
248,209	423,75
248,666	403,99
249,123	413,87
249,58	428,7
250,037	413,87
250,494	423,75
250,951	408,93
251,408	364,45
251,865	352,1
252,322	359,51
252,779	438,58
253,235	376,81
253,692	394,1
254,149	379,28
254,605	391,63
255,062	381,75
255,518	436,11
255,975	374,34
256,431	500,35
256,887	413,87
257,344	413,87
257,8	441,05
258,256	413,87
258,712	413,87
259,168	483,06
259,625	438,58
260,081	433,64
260,537	433,64
260,992	463,29
261,448	413,87
261,904	401,52
262,36	443,52
262,816	399,05
263,272	428,7
263,727	428,7
264,183	403,99
264,638	458,35
265,094	431,17
265,549	460,82
266,005	431,17
266,46	364,45
266,916	455,88
267,371	433,64
267,826	384,22
268,281	423,75
268,737	374,34
269,192	401,52
269,647	448,46
270,102	443,52
270,557	334,8
271,012	310,09
271,467	413,87
271,921	381,75
272,376	413,87
272,831	438,58
273,286	416,34
273,74	458,35
274,195	468,23
274,649	492,94
275,104	386,69
275,558	371,87
276,013	485,53
276,467	450,93
276,922	369,4
277,376	421,28
277,83	403,99
278,284	416,34
278,739	394,1
279,193	431,17
279,647	468,23
280,101	453,41
280,555	470,7
281,009	394,1
281,462	413,87
281,916	460,82
282,37	428,7
282,824	428,7
283,278	408,93
283,731	418,81
284,185	403,99
284,638	455,88
285,092	391,63
285,545	426,23
285,999	445,99
286,452	438,58
286,905	347,16
287,359	448,46
287,812	441,05
288,265	421,28
288,718	520,12
289,171	539,89
289,624	421,28
290,077	384,22
290,53	443,52
290,983	418,81
291,436	384,22
291,889	394,1
292,342	399,05
292,794	458,35
293,247	445,99
293,7	413,87
294,152	478,11
294,605	421,28
295,057	396,58
295,51	386,69
295,962	483,06
296,414	465,76
296,867	423,75
297,319	441,05
297,771	396,58
298,223	488
298,675	436,11
299,128	453,41
299,58	433,64
300,032	460,82
300,483	470,7
300,935	416,34
301,387	463,29
301,839	453,41
302,291	463,29
302,742	379,28
303,194	347,16
303,646	448,46
304,097	463,29
304,549	468,23
305	445,99
305,451	490,47
305,903	421,28
306,354	374,34
306,805	416,34
307,257	500,35
307,708	413,87
308,159	399,05
308,61	408,93
309,061	386,69
309,512	428,7
309,963	428,7
310,414	460,82
310,865	475,64
311,315	421,28
311,766	500,35
312,217	426,23
312,668	438,58
313,118	436,11
313,569	408,93
314,019	468,23
314,47	441,05
314,92	490,47
315,37	460,82
315,821	475,64
316,271	505,29
316,721	428,7
317,171	483,06
317,622	453,41
318,072	401,52
318,522	455,88
318,972	416,34
319,422	423,75
319,872	483,06
320,321	458,35
320,771	520,12
321,221	406,46
321,671	403,99
322,12	453,41
322,57	416,34
323,019	448,46
323,469	431,17
323,918	423,75
324,368	418,81
324,817	485,53
325,267	455,88
325,716	448,46
326,165	438,58
326,614	475,64
327,063	445,99
327,512	426,23
327,961	436,11
328,41	436,11
328,859	475,64
329,308	381,75
329,757	445,99
330,206	470,7
330,655	391,63
331,103	366,92
331,552	458,35
332,001	431,17
332,449	433,64
332,898	408,93
333,346	490,47
333,794	396,58
334,243	483,06
334,691	488
335,139	445,99
335,588	502,82
336,036	490,47
336,484	413,87
336,932	401,52
337,38	441,05
337,828	394,1
338,276	453,41
338,724	403,99
339,172	448,46
339,619	463,29
340,067	468,23
340,515	463,29
340,962	374,34
341,41	475,64
341,858	483,06
342,305	376,81
342,753	413,87
343,2	433,64
343,647	485,53
344,095	408,93
344,542	475,64
344,989	492,94
345,436	453,41
345,883	445,99
346,33	416,34
346,777	431,17
347,224	463,29
347,671	473,17
348,118	441,05
348,565	401,52
349,012	428,7
349,458	443,52
349,905	389,16
350,352	389,16
350,798	403,99
351,245	421,28
351,691	443,52
352,138	396,58
352,584	475,64
353,03	443,52
353,477	433,64
353,923	468,23
354,369	445,99
354,815	386,69
355,261	448,46
355,707	423,75
356,153	406,46
356,599	401,52
357,045	406,46
357,491	386,69
357,937	423,75
358,382	441,05
358,828	488
359,274	441,05
359,719	436,11
360,165	423,75
360,61	413,87
361,056	475,64
361,501	408,93
361,947	386,69
362,392	448,46
362,837	433,64
363,282	436,11
363,727	460,82
364,173	426,23
364,618	406,46
365,063	453,41
365,508	406,46
365,952	492,94
366,397	396,58
366,842	416,34
367,287	413,87
367,732	322,45
368,176	468,23
368,621	500,35
369,065	411,4
369,51	399,05
369,954	399,05
370,399	411,4
370,843	413,87
371,287	438,58
371,732	465,76
372,176	431,17
372,62	428,7
373,064	413,87
373,508	396,58
373,952	406,46
374,396	433,64
374,84	401,52
375,284	492,94
375,728	445,99
376,172	416,34
376,615	463,29
377,059	394,1
377,503	369,4
377,946	450,93
378,39	441,05
378,833	453,41
379,277	453,41
379,72	436,11
380,163	423,75
380,607	478,11
381,05	413,87
381,493	438,58
381,936	421,28
382,379	483,06
382,822	485,53
383,265	448,46
383,708	421,28
384,151	473,17
384,594	369,4
385,037	416,34
385,479	445,99
385,922	418,81
386,365	413,87
386,807	406,46
387,25	470,7
387,692	450,93
388,135	391,63
388,577	468,23
389,019	480,59
389,461	438,58
389,904	502,82
390,346	438,58
390,788	436,11
391,23	349,63
391,672	406,46
392,114	423,75
392,556	460,82
392,998	445,99
393,44	371,87
393,881	406,46
394,323	453,41
394,765	438,58
395,206	485,53
395,648	443,52
396,09	475,64
396,531	403,99
396,972	426,23
397,414	460,82
397,855	428,7
398,296	426,23
398,738	384,22
399,179	465,76
399,62	389,16
400,061	386,69
400,502	431,17
400,943	478,11
401,384	431,17
401,825	396,58
402,265	357,04
402,706	433,64
403,147	431,17
403,588	458,35
404,028	455,88
404,469	475,64
404,909	473,17
405,35	443,52
405,79	401,52
406,23	396,58
406,671	436,11
407,111	458,35
407,551	428,7
407,991	423,75
408,431	421,28
408,871	401,52
409,311	411,4
409,751	317,51
410,191	468,23
410,631	423,75
411,071	418,81
411,511	408,93
411,95	450,93
412,39	421,28
412,83	408,93
413,269	460,82
413,709	455,88
414,148	468,23
414,587	399,05
415,027	426,23
415,466	438,58
415,905	465,76
416,345	396,58
416,784	406,46
417,223	411,4
417,662	475,64
418,101	416,34
418,54	455,88
418,979	450,93
419,417	428,7
419,856	406,46
420,295	460,82
420,734	450,93
421,172	492,94
421,611	411,4
422,049	505,29
422,488	502,82
422,926	463,29
423,364	478,11
423,803	423,75
424,241	416,34
424,679	483,06
425,117	463,29
425,555	470,7
425,994	413,87
426,432	470,7
426,87	478,11
427,307	502,82
427,745	423,75
428,183	468,23
428,621	448,46
429,058	480,59
429,496	532,47
429,934	542,36
430,371	475,64
430,809	564,59
431,246	443,52
431,684	547,3
432,121	502,82
432,558	530
432,995	539,89
433,433	601,66
433,87	544,83
434,307	557,18
434,744	502,82
435,181	547,3
435,618	572,01
436,055	688,14
436,491	683,2
436,928	572,01
437,365	628,84
437,801	591,77
438,238	557,18
438,675	599,19
439,111	527,53
439,548	567,07
439,984	596,72
440,42	574,48
440,857	562,12
441,293	599,19
441,729	574,48
442,165	618,95
442,601	623,9
443,037	591,77
443,473	567,07
443,909	633,78
444,345	651,08
444,781	628,84
445,217	636,25
445,652	618,95
446,088	638,72
446,524	621,42
446,959	631,31
447,395	663,43
447,83	586,83
448,266	680,73
448,701	626,37
449,136	631,31
449,572	673,31
450,007	668,37
450,442	685,67
450,877	683,2
451,312	700,49
451,747	678,26
452,182	616,48
452,617	683,2
453,052	604,13
453,486	641,19
453,921	641,19
454,356	722,73
454,79	628,84
455,225	688,14
455,66	690,61
456,094	636,25
456,528	678,26
456,963	675,78
457,397	656,02
457,831	591,77
458,265	628,84
458,7	646,13
459,134	594,25
459,568	614,01
460,002	596,72
460,436	611,54
460,87	569,54
461,303	614,01
461,737	589,3
462,171	584,36
462,605	586,83
463,038	646,13
463,472	544,83
463,905	581,89
464,339	569,54
464,772	599,19
465,205	574,48
465,639	623,9
466,072	611,54
466,505	616,48
466,938	552,24
467,371	569,54
467,804	534,94
468,237	542,36
468,67	525,06
469,103	557,18
469,536	572,01
469,969	633,78
470,402	527,53
470,834	579,42
471,267	539,89
471,699	537,42
472,132	539,89
472,564	515,18
472,997	473,17
473,429	567,07
473,861	554,71
474,294	567,07
474,726	554,71
475,158	567,07
475,59	539,89
476,022	549,77
476,454	564,59
476,886	569,54
477,318	539,89
477,75	552,24
478,181	626,37
478,613	618,95
479,045	562,12
479,476	601,66
479,908	581,89
480,339	569,54
480,771	576,95
481,202	641,19
481,634	611,54
482,065	636,25
482,496	606,6
482,927	633,78
483,358	690,61
483,789	636,25
484,22	678,26
484,651	628,84
485,082	663,43
485,513	695,55
485,944	707,91
486,375	789,44
486,805	908,05
487,236	950,05
487,667	1048,89
488,097	1234,2
488,527	1263,85
488,958	1446,7
489,388	1597,42
489,819	1716,02
490,249	1930,99
490,679	2271,97
491,109	2654,95
491,539	3250,44
491,969	4144,89
492,399	5022,05
492,829	6259,96
493,259	7450,92
493,689	8552,93
494,119	9711,77
494,548	10541,99
494,978	11307,96
495,408	11770,01
495,837	12434,68
496,267	13040,04
496,696	14305,13
497,126	16101,45
497,555	18619,27
497,984	21843,76
498,413	25367,23
498,843	29607,25
499,272	33995,52
499,701	38267,67
500,13	41190,71
500,559	43753,01
500,988	44103,87
501,417	44924,2
501,845	43955,62
502,274	42532,4
502,703	40703,95
503,131	39273,31
503,56	38527,11
503,988	38423,33
504,417	39223,89
504,845	40993,04
505,274	43580,05
505,702	46942,91
506,13	49945,02
506,558	52934,78
506,987	54689,1
507,415	56421,18
507,843	56507,66
508,271	56193,86
508,699	54353,06
509,126	52497,43
509,554	49969,73
509,982	46488,27
510,41	43046,34
510,837	40187,54
511,265	36770,32
511,693	34531,7
512,12	31853,28
512,547	30254,62
512,975	29063,66
513,402	27082,02
513,829	25774,93
514,257	24060,14
514,684	21596,68
515,111	20012,85
515,538	17287,47
515,965	15105,69
516,392	12681,76
516,819	10418,44
517,246	8681,42
517,672	6919,68
518,099	5575,53
518,526	4498,23
518,952	3534,59
519,379	2788,38
519,805	2343,62
520,232	1948,28
520,658	1681,43
521,085	1594,95
521,511	1503,53
521,937	1429,4
522,363	1310,8
522,789	1404,69
523,215	1375,04
523,641	1434,34
524,067	1491,17
524,493	1481,29
524,919	1449,17
525,345	1508,47
525,771	1533,18
526,196	1481,29
526,622	1471,41
527,047	1362,69
527,473	1471,41
527,898	1350,33
528,324	1397,28
528,749	1313,27
529,174	1342,92
529,6	1268,79
530,025	1204,55
530,45	1211,96
530,875	1244,09
531,3	1258,91
531,725	1167,49
532,15	1085,95
532,575	1219,38
532,999	1160,08
533,424	1197,14
533,849	1167,49
534,273	1041,47
534,698	1093,36
535,122	1118,07
535,547	1132,9
535,971	1172,43
536,396	1137,84
536,82	1174,9
537,244	1113,13
537,668	1169,96
538,092	1135,37
538,517	1113,13
538,941	1184,78
539,364	1115,6
539,788	1103,25
540,212	1110,66
540,636	1041,47
541,06	1120,54
541,483	1165,02
541,907	1145,25
542,331	1281,15
542,754	1127,95
543,178	1162,55
543,601	1125,48
544,024	1120,54
544,448	1145,25
544,871	1098,3
545,294	1224,32
545,717	1352,8
546,14	1567,77
546,563	1570,24
546,986	1459,05
547,409	1441,76
547,832	1441,76
548,255	1417,05
548,677	1293,5
549,1	1204,55
549,522	1169,96
549,945	1150,19
550,368	1207,02
550,79	1209,49
551,212	1229,26
551,635	1177,37
552,057	1127,95
552,479	1152,66
552,901	1182,31
553,323	1182,31
553,745	1162,55
554,167	1108,19
554,589	1199,61
555,011	1184,78
555,433	1219,38
555,855	1194,67
556,277	1083,48
556,698	1221,85
557,12	1135,37
557,541	1167,49
557,963	1155,13
558,384	1174,9
558,806	1165,02
559,227	1219,38
559,648	1207,02
560,069	1174,9
560,49	1135,37
560,912	1194,67
561,333	1162,55
561,754	1177,37
562,174	1229,26
562,595	1209,49
563,016	1174,9
563,437	1189,73
563,858	1147,72
564,278	1241,61
564,699	1073,59
565,119	1160,08
565,54	1202,08
565,96	1127,95
566,38	1174,9
566,801	1258,91
567,221	1182,31
567,641	1165,02
568,061	1157,6
568,481	1189,73
568,901	1118,07
569,321	1155,13
569,741	1229,26
570,161	1157,6
570,581	1202,08
571,001	1207,02
571,42	1249,03
571,84	1207,02
572,259	1246,56
572,679	1135,37
573,098	1202,08
573,518	1281,15
573,937	1207,02
574,356	1202,08
574,775	1224,32
575,195	1160,08
575,614	1239,14
576,033	1137,84
576,452	1239,14
576,871	1234,2
577,29	1320,68
577,708	1325,62
578,127	1266,32
578,546	1276,21
578,964	1244,09
579,383	1372,57
579,801	1291,03
580,22	1360,22
580,638	1350,33
581,057	1239,14
581,475	1234,2
581,893	1239,14
582,311	1209,49
582,73	1258,91
583,148	1147,72
583,566	1728,38
583,984	1202,08
584,401	1132,9
584,819	1177,37
585,237	1147,72
585,655	1184,78
586,072	1120,54
586,49	1209,49
586,908	1211,96
587,325	1108,19
587,742	1081,01
588,16	1058,77
588,577	1098,3
588,994	1081,01
589,412	1123,01
589,829	1142,78
590,246	1157,6
590,663	1132,9
591,08	1177,37
591,497	1105,72
591,914	1090,89
592,33	1123,01
592,747	1140,31
593,164	1098,3
593,58	1120,54
593,997	1127,95
594,413	1110,66
594,83	1093,36
595,246	1162,55
595,663	1093,36
596,079	1113,13
596,495	1063,71
596,911	1145,25
597,327	1071,12
597,743	1066,18
598,159	1095,83
598,575	1061,24
598,991	1120,54
599,407	1093,36
599,823	1095,83
600,238	1130,43
600,654	1029,12
601,07	1088,42
601,485	1130,43
601,901	1100,77
602,316	1123,01
602,731	1048,89
603,147	1053,83
603,562	1053,83
603,977	1009,35
604,392	1011,82
604,807	1058,77
605,222	987,11
605,637	1016,76
606,052	1043,94
606,467	940,17
606,882	954,99
607,296	1006,88
607,711	987,11
608,125	1001,94
608,54	984,64
608,954	922,87
609,369	947,58
609,783	903,1
610,197	900,63
610,612	967,35
611,026	895,69
611,44	912,99
611,854	925,34
612,268	900,63
612,682	898,16
613,096	809,21
613,51	831,45
613,923	853,69
614,337	880,87
614,751	863,57
615,164	833,92
615,578	900,63
615,991	836,39
616,405	826,51
616,818	910,52
617,231	851,22
617,645	796,86
618,058	843,8
618,471	843,8
618,884	811,68
619,297	777,09
619,71	759,79
620,123	801,8
620,536	806,74
620,948	737,56
621,361	754,85
621,774	853,69
622,186	806,74
622,599	759,79
623,011	725,2
623,424	841,33
623,836	707,91
624,248	789,44
624,661	848,75
625,073	782,03
625,485	722,73
625,897	720,26
626,309	784,5
626,721	700,49
627,133	747,44
627,545	737,56
627,956	665,9
628,368	683,2
628,78	725,2
629,191	710,38
629,603	749,91
630,014	698,02
630,426	668,37
630,837	782,03
631,248	611,54
631,66	656,02
632,071	700,49
632,482	685,67
632,893	707,91
633,304	705,43
633,715	732,61
634,126	646,13
634,536	623,9
634,947	660,96
635,358	559,65
635,769	663,43
636,179	648,6
636,59	643,66
637	685,67
637,41	636,25
637,821	643,66
638,231	606,6
638,641	604,13
639,051	584,36
639,462	609,07
639,872	564,59
640,282	628,84
640,691	693,08
641,101	544,83
641,511	606,6
641,921	643,66
642,331	586,83
642,74	539,89
643,15	623,9
643,559	609,07
643,969	554,71
644,378	554,71
644,787	601,66
645,197	589,3
645,606	576,95
646,015	589,3
646,424	544,83
646,833	581,89
647,242	581,89
647,651	579,42
648,06	552,24
648,469	584,36
648,877	641,19
649,286	567,07
649,694	576,95
650,103	621,42
650,512	564,59
650,92	591,77
651,328	549,77
651,737	584,36
652,145	552,24
652,553	594,25
652,961	576,95
653,369	611,54
653,777	539,89
654,185	547,3
654,593	559,65
655,001	589,3
655,409	567,07
655,816	567,07
656,224	549,77
656,631	557,18
657,039	532,47
657,446	663,43
657,854	559,65
658,261	576,95
658,668	539,89
659,076	581,89
659,483	530
659,89	547,3
660,297	579,42
660,704	522,59
661,111	562,12
661,518	527,53
661,924	569,54
662,331	581,89
662,738	576,95
663,144	512,71
663,551	510,24
663,957	473,17
664,364	512,71
664,77	564,59
665,177	473,17
665,583	542,36
665,989	468,23
666,395	497,88
666,801	445,99
667,207	488
667,613	517,65
668,019	470,7
668,425	455,88
668,83	455,88
669,236	500,35
669,642	530
670,047	478,11
670,453	505,29
670,858	490,47
671,264	492,94
671,669	532,47
672,074	530
672,48	460,82
672,885	468,23
673,29	512,71
673,695	438,58
674,1	483,06
674,505	492,94
674,909	450,93
675,314	468,23
675,719	455,88
676,124	473,17
676,528	394,1
676,933	488
677,337	431,17
677,742	510,24
678,146	502,82
678,55	537,42
678,955	480,59
679,359	478,11
679,763	453,41
680,167	517,65
680,571	445,99
680,975	443,52
681,379	411,4
681,782	408,93
682,186	480,59
682,59	495,41
682,993	418,81
683,397	443,52
683,8	465,76
684,204	379,28
684,607	475,64
685,011	460,82
685,414	468,23
685,817	431,17
686,22	510,24
686,623	441,05
687,026	458,35
687,429	515,18
687,832	394,1
688,235	468,23
688,638	458,35
689,04	445,99
689,443	421,28
689,845	453,41
690,248	465,76
690,65	480,59
691,053	450,93
691,455	478,11
691,857	502,82
692,26	441,05
692,662	483,06
693,064	443,52
693,466	505,29
693,868	428,7
694,27	502,82
694,671	448,46
695,073	433,64
695,475	465,76
695,877	376,81
696,278	389,16
696,68	441,05
697,081	502,82
697,483	371,87
697,884	455,88
698,285	515,18
698,686	428,7
699,087	443,52
699,489	413,87
699,89	421,28
700,291	441,05
700,691	450,93
701,092	374,34
701,493	399,05
701,894	364,45
702,294	488
702,695	418,81
703,096	423,75
703,496	460,82
703,896	428,7
704,297	455,88
704,697	421,28
705,097	468,23
705,497	448,46
705,897	465,76
706,297	445,99
706,697	448,46
707,097	455,88
707,497	436,11
707,897	416,34
708,297	445,99
708,696	396,58
709,096	411,4
709,495	450,93
709,895	391,63
710,294	406,46
710,694	381,75
711,093	399,05
711,492	463,29
711,891	463,29
712,29	436,11
712,689	463,29
713,088	455,88
713,487	453,41
713,886	423,75
714,285	401,52
714,684	428,7
715,082	421,28
715,481	492,94
715,879	433,64
716,278	433,64
716,676	431,17
717,075	433,64
717,473	384,22
717,871	379,28
718,269	458,35
718,667	369,4
719,065	418,81
