Data from FLMS187131_14-53-42-439.txt Node
Date: Mon Dec 23 14:53:42 MSK 2024
User: FemtoLab1
Spectrometer: FLMS18713
Trigger mode: 0
Integration Time (sec): 5,400000E-2
Scans to average: 1
Electric dark correction enabled: true
Nonlinearity correction enabled: false
Boxcar width: 0
XAxis mode: Wavelengths
Number of Pixels in Spectrum: 2048
>>>>>Begin Spectral Data<<<<<
190,252	-36,45
190,715	-36,45
191,177	-36,45
191,64	-90,8
192,102	-122,93
192,565	-117,98
193,027	-155,05
193,49	-61,15
193,952	-145,16
194,415	-75,98
194,877	-93,28
195,339	-9,27
195,802	-11,74
196,264	45,09
196,726	15,44
197,188	47,56
197,65	89,57
198,112	121,69
198,574	116,75
199,036	87,1
199,498	146,4
199,96	158,75
200,421	143,93
200,883	166,17
201,345	260,06
201,807	279,83
202,268	252,65
202,73	289,71
203,191	279,83
203,653	272,41
204,114	282,3
204,576	383,6
205,037	400,9
205,498	272,41
205,96	378,66
206,421	373,72
206,882	358,89
207,343	393,49
207,804	368,78
208,265	395,96
208,726	383,6
209,187	415,72
209,648	428,08
210,109	425,61
210,57	470,08
211,031	344,07
211,492	371,25
211,952	376,19
212,413	381,13
212,874	452,79
213,334	353,95
213,795	363,84
214,255	386,07
214,716	349,01
215,176	383,6
215,636	344,07
216,097	418,2
216,557	400,9
217,017	435,49
217,477	368,78
217,938	447,85
218,398	381,13
218,858	413,25
219,318	341,6
219,778	420,67
220,238	346,54
220,698	309,48
221,157	388,54
221,617	398,43
222,077	418,2
222,537	371,25
222,996	351,48
223,456	336,66
223,915	371,25
224,375	405,84
224,834	349,01
225,294	304,54
225,753	395,96
226,213	383,6
226,672	321,83
227,131	425,61
227,59	294,65
228,05	356,42
228,509	398,43
228,968	408,31
229,427	316,89
229,886	403,37
230,345	346,54
230,804	395,96
231,263	395,96
231,721	321,83
232,18	413,25
232,639	356,42
233,098	405,84
233,556	331,71
234,015	452,79
234,473	378,66
234,932	371,25
235,39	321,83
235,849	413,25
236,307	339,13
236,765	371,25
237,224	363,84
237,682	383,6
238,14	319,36
238,598	361,37
239,056	358,89
239,514	363,84
239,972	467,61
240,43	400,9
240,888	383,6
241,346	386,07
241,804	329,24
242,262	435,49
242,72	393,49
243,177	388,54
243,635	381,13
244,093	445,38
244,55	420,67
245,008	383,6
245,465	381,13
245,923	418,2
246,38	376,19
246,837	353,95
247,295	403,37
247,752	358,89
248,209	405,84
248,666	371,25
249,123	319,36
249,58	358,89
250,037	356,42
250,494	405,84
250,951	423,14
251,408	391,02
251,865	445,38
252,322	376,19
252,779	425,61
253,235	363,84
253,692	339,13
254,149	366,31
254,605	366,31
255,062	391,02
255,518	378,66
255,975	366,31
256,431	356,42
256,887	331,71
257,344	378,66
257,8	420,67
258,256	346,54
258,712	361,37
259,168	393,49
259,625	391,02
260,081	358,89
260,537	381,13
260,992	398,43
261,448	408,31
261,904	373,72
262,36	435,49
262,816	378,66
263,272	405,84
263,727	381,13
264,183	423,14
264,638	435,49
265,094	376,19
265,549	381,13
266,005	462,67
266,46	457,73
266,916	445,38
267,371	371,25
267,826	398,43
268,281	398,43
268,737	356,42
269,192	371,25
269,647	437,96
270,102	405,84
270,557	351,48
271,012	386,07
271,467	423,14
271,921	391,02
272,376	400,9
272,831	393,49
273,286	425,61
273,74	467,61
274,195	428,08
274,649	393,49
275,104	398,43
275,558	351,48
276,013	395,96
276,467	381,13
276,922	437,96
277,376	430,55
277,83	433,02
278,284	351,48
278,739	339,13
279,193	475,03
279,647	462,67
280,101	373,72
280,555	423,14
281,009	351,48
281,462	376,19
281,916	353,95
282,37	418,2
282,824	373,72
283,278	398,43
283,731	405,84
284,185	358,89
284,638	415,72
285,092	373,72
285,545	395,96
285,999	475,03
286,452	405,84
286,905	435,49
287,359	437,96
287,812	391,02
288,265	425,61
288,718	376,19
289,171	395,96
289,624	371,25
290,077	467,61
290,53	405,84
290,983	410,78
291,436	356,42
291,889	433,02
292,342	405,84
292,794	504,68
293,247	418,2
293,7	430,55
294,152	497,26
294,605	430,55
295,057	405,84
295,51	410,78
295,962	403,37
296,414	366,31
296,867	403,37
297,319	391,02
297,771	437,96
298,223	383,6
298,675	430,55
299,128	437,96
299,58	428,08
300,032	391,02
300,483	403,37
300,935	393,49
301,387	430,55
301,839	475,03
302,291	437,96
302,742	433,02
303,194	378,66
303,646	378,66
304,097	460,2
304,549	405,84
305	398,43
305,451	425,61
305,903	420,67
306,354	413,25
306,805	381,13
307,257	391,02
307,708	430,55
308,159	403,37
308,61	363,84
309,061	442,9
309,512	447,85
309,963	452,79
310,414	368,78
310,865	477,5
311,315	403,37
311,766	435,49
312,217	437,96
312,668	391,02
313,118	410,78
313,569	433,02
314,019	410,78
314,47	430,55
314,92	353,95
315,37	457,73
315,821	408,31
316,271	329,24
316,721	418,2
317,171	433,02
317,622	440,43
318,072	430,55
318,522	440,43
318,972	440,43
319,422	398,43
319,872	472,55
320,321	447,85
320,771	403,37
321,221	383,6
321,671	391,02
322,12	452,79
322,57	430,55
323,019	398,43
323,469	428,08
323,918	383,6
324,368	442,9
324,817	452,79
325,267	425,61
325,716	405,84
326,165	349,01
326,614	442,9
327,063	418,2
327,512	435,49
327,961	445,38
328,41	509,62
328,859	334,19
329,308	336,66
329,757	381,13
330,206	405,84
330,655	408,31
331,103	393,49
331,552	435,49
332,001	403,37
332,449	391,02
332,898	435,49
333,346	428,08
333,794	420,67
334,243	388,54
334,691	408,31
335,139	366,31
335,588	484,91
336,036	418,2
336,484	405,84
336,932	440,43
337,38	420,67
337,828	415,72
338,276	435,49
338,724	395,96
339,172	452,79
339,619	393,49
340,067	445,38
340,515	391,02
340,962	420,67
341,41	452,79
341,858	437,96
342,305	410,78
342,753	413,25
343,2	467,61
343,647	393,49
344,095	440,43
344,542	423,14
344,989	398,43
345,436	371,25
345,883	452,79
346,33	363,84
346,777	378,66
347,224	425,61
347,671	433,02
348,118	378,66
348,565	447,85
349,012	445,38
349,458	395,96
349,905	423,14
350,352	430,55
350,798	420,67
351,245	425,61
351,691	415,72
352,138	482,44
352,584	403,37
353,03	452,79
353,477	400,9
353,923	440,43
354,369	428,08
354,815	368,78
355,261	452,79
355,707	423,14
356,153	368,78
356,599	376,19
357,045	435,49
357,491	442,9
357,937	383,6
358,382	430,55
358,828	425,61
359,274	440,43
359,719	388,54
360,165	457,73
360,61	408,31
361,056	445,38
361,501	447,85
361,947	420,67
362,392	395,96
362,837	336,66
363,282	371,25
363,727	430,55
364,173	437,96
364,618	425,61
365,063	400,9
365,508	418,2
365,952	353,95
366,397	425,61
366,842	356,42
367,287	408,31
367,732	425,61
368,176	457,73
368,621	475,03
369,065	361,37
369,51	445,38
369,954	430,55
370,399	405,84
370,843	391,02
371,287	373,72
371,732	415,72
372,176	492,32
372,62	470,08
373,064	344,07
373,508	467,61
373,952	450,32
374,396	388,54
374,84	452,79
375,284	433,02
375,728	395,96
376,172	437,96
376,615	371,25
377,059	358,89
377,503	373,72
377,946	460,2
378,39	470,08
378,833	467,61
379,277	410,78
379,72	428,08
380,163	447,85
380,607	408,31
381,05	450,32
381,493	393,49
381,936	400,9
382,379	410,78
382,822	445,38
383,265	457,73
383,708	472,55
384,151	408,31
384,594	388,54
385,037	420,67
385,479	361,37
385,922	349,01
386,365	410,78
386,807	460,2
387,25	408,31
387,692	344,07
388,135	366,31
388,577	447,85
389,019	413,25
389,461	425,61
389,904	492,32
390,346	395,96
390,788	435,49
391,23	437,96
391,672	395,96
392,114	413,25
392,556	455,26
392,998	425,61
393,44	430,55
393,881	489,85
394,323	413,25
394,765	400,9
395,206	465,14
395,648	363,84
396,09	403,37
396,531	353,95
396,972	423,14
397,414	568,92
397,855	408,31
398,296	423,14
398,738	413,25
399,179	452,79
399,62	428,08
400,061	386,07
400,502	442,9
400,943	437,96
401,384	433,02
401,825	415,72
402,265	410,78
402,706	492,32
403,147	391,02
403,588	388,54
404,028	455,26
404,469	452,79
404,909	398,43
405,35	462,67
405,79	460,2
406,23	386,07
406,671	452,79
407,111	361,37
407,551	368,78
407,991	393,49
408,431	460,2
408,871	349,01
409,311	457,73
409,751	356,42
410,191	452,79
410,631	423,14
411,071	435,49
411,511	425,61
411,95	455,26
412,39	383,6
412,83	398,43
413,269	415,72
413,709	435,49
414,148	410,78
414,587	442,9
415,027	346,54
415,466	440,43
415,905	400,9
416,345	334,19
416,784	403,37
417,223	430,55
417,662	433,02
418,101	403,37
418,54	423,14
418,979	368,78
419,417	388,54
419,856	428,08
420,295	418,2
420,734	433,02
421,172	405,84
421,611	346,54
422,049	395,96
422,488	430,55
422,926	373,72
423,364	465,14
423,803	475,03
424,241	445,38
424,679	452,79
425,117	452,79
425,555	371,25
425,994	356,42
426,432	460,2
426,87	423,14
427,307	462,67
427,745	383,6
428,183	450,32
428,621	428,08
429,058	428,08
429,496	487,38
429,934	403,37
430,371	378,66
430,809	450,32
431,246	381,13
431,684	415,72
432,121	408,31
432,558	425,61
432,995	353,95
433,433	517,03
433,87	366,31
434,307	484,91
434,744	425,61
435,181	437,96
435,618	425,61
436,055	499,73
436,491	509,62
436,928	465,14
437,365	479,97
437,801	529,38
438,238	467,61
438,675	467,61
439,111	504,68
439,548	428,08
439,984	512,09
440,42	465,14
440,857	470,08
441,293	470,08
441,729	484,91
442,165	526,91
442,601	514,56
443,037	423,14
443,473	462,67
443,909	425,61
444,345	440,43
444,781	410,78
445,217	433,02
445,652	457,73
446,088	465,14
446,524	551,62
446,959	442,9
447,395	472,55
447,83	509,62
448,266	514,56
448,701	467,61
449,136	472,55
449,572	447,85
450,007	492,32
450,442	563,98
450,877	479,97
451,312	413,25
451,747	514,56
452,182	428,08
452,617	544,21
453,052	507,15
453,486	462,67
453,921	559,04
454,356	440,43
454,79	445,38
455,225	514,56
455,66	487,38
456,094	512,09
456,528	546,68
456,963	465,14
457,397	470,08
457,831	435,49
458,265	437,96
458,7	489,85
459,134	568,92
459,568	526,91
460,002	465,14
460,436	484,91
460,87	581,27
461,303	502,21
461,737	554,09
462,171	534,33
462,605	489,85
463,038	526,91
463,472	477,5
463,905	494,79
464,339	455,26
464,772	477,5
465,205	435,49
465,639	494,79
466,072	529,38
466,505	499,73
466,938	479,97
467,371	440,43
467,804	470,08
468,237	423,14
468,67	507,15
469,103	462,67
469,536	507,15
469,969	507,15
470,402	497,26
470,834	494,79
471,267	472,55
471,699	465,14
472,132	529,38
472,564	529,38
472,997	549,15
473,429	546,68
473,861	519,5
474,294	482,44
474,726	521,97
475,158	482,44
475,59	514,56
476,022	556,56
476,454	615,87
476,886	591,16
477,318	670,22
477,75	717,17
478,181	791,3
478,613	885,19
479,045	1011,21
479,476	1055,68
479,908	1307,71
480,339	1280,53
480,771	1337,36
481,202	1359,6
481,634	1278,06
482,065	1448,55
482,496	1515,26
482,927	1789,53
483,358	2281,23
483,789	2960,73
484,22	3877,42
484,651	5056,03
485,082	6405,12
485,513	8097,67
485,944	9254,04
486,375	10674,79
486,805	11823,75
487,236	12799,75
487,667	13155,55
488,097	13318,63
488,527	12691,03
488,958	12206,74
489,388	11030,6
489,819	10289,34
490,249	10568,55
490,679	11277,69
491,109	13046,83
491,539	16021,77
491,969	20044,35
492,399	24180,59
492,829	28450,26
493,259	33070,8
493,689	36910,54
494,119	39915,12
494,548	42087,02
494,978	43851,22
495,408	45790,86
495,837	45867,46
496,267	46114,55
496,696	45449,88
497,126	43831,46
497,555	41076,43
497,984	38375,77
498,413	34511,32
498,843	31333,78
499,272	28284,72
499,701	25900,32
500,13	24202,83
500,559	23975,51
500,988	24546,28
501,417	26476,04
501,845	28872,78
502,274	31580,86
502,703	34975,84
503,131	37693,81
503,56	39640,85
503,988	41536,02
504,417	42227,86
504,845	42146,32
505,274	41948,65
505,702	40480,95
506,13	39527,19
506,558	36804,29
506,987	34582,97
507,415	32136,81
507,843	29490,5
508,271	26809,6
508,699	24281,9
509,126	22352,15
509,554	20610,18
509,982	18954,69
510,41	17719,26
510,837	16543,12
511,265	15352,16
511,693	14183,44
512,12	13153,08
512,547	12248,74
512,975	10815,63
513,402	9790,22
513,829	8446,07
514,257	7465,13
514,684	6345,82
515,111	5737,99
515,538	4939,9
515,965	4233,23
516,392	3904,6
516,819	3351,12
517,246	3081,8
517,672	2849,54
518,099	2733,4
518,526	2743,29
518,952	2718,58
519,379	2498,67
519,805	2436,9
520,232	2226,88
520,658	2167,57
521,085	1898,25
521,511	1747,53
521,937	1619,04
522,363	1636,34
522,789	1507,85
523,215	1493,03
523,641	1381,84
524,067	1278,06
524,493	1243,47
524,919	1169,34
525,345	1191,58
525,771	1119,92
526,196	1048,27
526,622	1011,21
527,047	904,96
527,473	961,79
527,898	855,54
528,324	816,01
528,749	776,47
529,174	858,01
529,6	746,82
530,025	813,54
530,45	793,77
530,875	744,35
531,3	803,65
531,725	665,28
532,15	727,05
532,575	791,3
532,999	687,52
533,424	781,41
533,849	751,76
534,273	704,82
534,698	613,39
535,122	685,05
535,547	657,87
535,971	692,46
536,396	761,65
536,82	667,75
537,244	712,23
537,668	709,76
538,092	652,93
538,517	647,99
538,941	670,22
539,364	623,28
539,788	645,52
540,212	722,11
540,636	759,18
541,06	739,41
541,483	682,58
541,907	657,87
542,331	662,81
542,754	754,23
543,178	739,41
543,601	761,65
544,024	699,88
544,448	697,4
544,871	712,23
545,294	660,34
545,717	727,05
546,14	828,36
546,563	828,36
546,986	840,71
547,409	882,72
547,832	754,23
548,255	709,76
548,677	699,88
549,1	761,65
549,522	781,41
549,945	672,7
550,368	675,17
550,79	719,64
551,212	667,75
551,635	682,58
552,057	717,17
552,479	707,29
552,901	719,64
553,323	704,82
553,745	796,24
554,167	729,53
554,589	719,64
555,011	680,11
555,433	712,23
555,855	699,88
556,277	744,35
556,698	744,35
557,12	724,58
557,541	662,81
557,963	704,82
558,384	657,87
558,806	682,58
559,227	682,58
559,648	746,82
560,069	771,53
560,49	714,7
560,912	796,24
561,333	756,71
561,754	699,88
562,174	781,41
562,595	732
563,016	729,53
563,437	759,18
563,858	774
564,278	776,47
564,699	741,88
565,119	739,41
565,54	783,88
565,96	746,82
566,38	744,35
566,801	746,82
567,221	739,41
567,641	732
568,061	719,64
568,481	717,17
568,901	660,34
569,321	719,64
569,741	776,47
570,161	699,88
570,581	764,12
571,001	714,7
571,42	734,47
571,84	754,23
572,259	719,64
572,679	761,65
573,098	766,59
573,518	687,52
573,937	761,65
574,356	754,23
574,775	781,41
575,195	734,47
575,614	783,88
576,033	672,7
576,452	796,24
576,871	766,59
577,29	766,59
577,708	865,42
578,127	801,18
578,546	788,83
578,964	838,24
579,383	838,24
579,801	774
580,22	791,3
580,638	793,77
581,057	759,18
581,475	783,88
581,893	746,82
582,311	820,95
582,73	717,17
583,148	709,76
583,566	929,67
583,984	803,65
584,401	776,47
584,819	798,71
585,237	808,59
585,655	692,46
586,072	751,76
586,49	694,93
586,908	759,18
587,325	675,17
587,742	727,05
588,16	717,17
588,577	712,23
588,994	744,35
589,412	761,65
589,829	754,23
590,246	754,23
590,663	855,54
591,08	811,06
591,497	712,23
591,914	732
592,33	677,64
592,747	749,29
593,164	781,41
593,58	727,05
593,997	722,11
594,413	704,82
594,83	615,87
595,246	702,35
595,663	665,28
596,079	741,88
596,495	727,05
596,911	732
597,327	667,75
597,743	707,29
598,159	682,58
598,575	655,4
598,991	756,71
599,407	660,34
599,823	734,47
600,238	687,52
600,654	657,87
601,07	675,17
601,485	655,4
601,901	741,88
602,316	739,41
602,731	719,64
603,147	643,05
603,562	628,22
603,977	643,05
604,392	650,46
604,807	601,04
605,222	618,34
605,637	615,87
606,052	608,45
606,467	605,98
606,882	581,27
607,296	610,92
607,711	573,86
608,125	610,92
608,54	652,93
608,954	670,22
609,369	610,92
609,783	618,34
610,197	610,92
610,612	613,39
611,026	625,75
611,44	645,52
611,854	665,28
612,268	551,62
612,682	529,38
613,096	672,7
613,51	613,39
613,923	598,57
614,337	536,8
614,751	517,03
615,164	559,04
615,578	613,39
615,991	615,87
616,405	618,34
616,818	588,69
617,231	561,51
617,645	613,39
618,058	623,28
618,471	502,21
618,884	536,8
619,297	601,04
619,71	544,21
620,123	603,51
620,536	536,8
620,948	549,15
621,361	517,03
621,774	524,44
622,186	549,15
622,599	613,39
623,011	502,21
623,424	647,99
623,836	489,85
624,248	551,62
624,661	568,92
625,073	581,27
625,485	561,51
625,897	517,03
626,309	507,15
626,721	517,03
627,133	526,91
627,545	521,97
627,956	519,5
628,368	524,44
628,78	554,09
629,191	539,27
629,603	507,15
630,014	517,03
630,426	489,85
630,837	598,57
631,248	571,39
631,66	568,92
632,071	554,09
632,482	551,62
632,893	536,8
633,304	571,39
633,715	521,97
634,126	460,2
634,536	472,55
634,947	494,79
635,358	497,26
635,769	526,91
636,179	521,97
636,59	497,26
637	554,09
637,41	470,08
637,821	554,09
638,231	521,97
638,641	519,5
639,051	460,2
639,462	433,02
639,872	514,56
640,282	477,5
640,691	462,67
641,101	467,61
641,511	502,21
641,921	475,03
642,331	475,03
642,74	502,21
643,15	514,56
643,559	482,44
643,969	514,56
644,378	524,44
644,787	457,73
645,197	455,26
645,606	512,09
646,015	410,78
646,424	440,43
646,833	559,04
647,242	494,79
647,651	462,67
648,06	507,15
648,469	462,67
648,877	457,73
649,286	484,91
649,694	442,9
650,103	470,08
650,512	447,85
650,92	425,61
651,328	450,32
651,737	442,9
652,145	492,32
652,553	435,49
652,961	395,96
653,369	442,9
653,777	437,96
654,185	502,21
654,593	415,72
655,001	514,56
655,409	467,61
655,816	489,85
656,224	526,91
656,631	430,55
657,039	484,91
657,446	455,26
657,854	428,08
658,261	460,2
658,668	452,79
659,076	435,49
659,483	529,38
659,89	445,38
660,297	452,79
660,704	428,08
661,111	415,72
661,518	388,54
661,924	455,26
662,331	413,25
662,738	450,32
663,144	475,03
663,551	494,79
663,957	410,78
664,364	457,73
664,77	428,08
665,177	430,55
665,583	405,84
665,989	457,73
666,395	391,02
666,801	405,84
667,207	457,73
667,613	395,96
668,019	440,43
668,425	433,02
668,83	386,07
669,236	484,91
669,642	435,49
670,047	423,14
670,453	418,2
670,858	400,9
671,264	445,38
671,669	425,61
672,074	433,02
672,48	445,38
672,885	442,9
673,29	351,48
673,695	450,32
674,1	423,14
674,505	391,02
674,909	433,02
675,314	423,14
675,719	314,42
676,124	383,6
676,528	408,31
676,933	398,43
677,337	428,08
677,742	393,49
678,146	319,36
678,55	405,84
678,955	435,49
679,359	391,02
679,763	358,89
680,167	445,38
680,571	351,48
680,975	430,55
681,379	452,79
681,782	376,19
682,186	410,78
682,59	467,61
682,993	393,49
683,397	413,25
683,8	410,78
684,204	413,25
684,607	361,37
685,011	423,14
685,414	467,61
685,817	388,54
686,22	437,96
686,623	437,96
687,026	373,72
687,429	489,85
687,832	455,26
688,235	395,96
688,638	400,9
689,04	353,95
689,443	403,37
689,845	366,31
690,248	455,26
690,65	398,43
691,053	433,02
691,455	428,08
691,857	435,49
692,26	361,37
692,662	395,96
693,064	393,49
693,466	410,78
693,868	381,13
694,27	408,31
694,671	395,96
695,073	408,31
695,475	423,14
695,877	368,78
696,278	376,19
696,68	420,67
697,081	445,38
697,483	413,25
697,884	356,42
698,285	326,77
698,686	388,54
699,087	386,07
699,489	388,54
699,89	435,49
700,291	381,13
700,691	410,78
701,092	420,67
701,493	420,67
701,894	346,54
702,294	373,72
702,695	349,01
703,096	368,78
703,496	358,89
703,896	435,49
704,297	378,66
704,697	450,32
705,097	410,78
705,497	391,02
705,897	400,9
706,297	386,07
706,697	428,08
707,097	413,25
707,497	437,96
707,897	383,6
708,297	420,67
708,696	371,25
709,096	349,01
709,495	346,54
709,895	368,78
710,294	373,72
710,694	447,85
711,093	381,13
711,492	405,84
711,891	361,37
712,29	388,54
712,689	440,43
713,088	413,25
713,487	435,49
713,886	408,31
714,285	415,72
714,684	452,79
715,082	447,85
715,481	395,96
715,879	410,78
716,278	430,55
716,676	378,66
717,075	371,25
717,473	386,07
717,871	378,66
718,269	358,89
718,667	376,19
719,065	388,54
719,463	391,02
719,861	376,19
720,259	386,07
720,657	376,19
721,054	395,96
721,452	408,31
721,85	489,85
722,247	450,32
