Data from FLMS187131_14-55-45-358.txt Node
Date: Mon Dec 23 14:55:45 MSK 2024
User: FemtoLab1
Spectrometer: FLMS18713
Trigger mode: 0
Integration Time (sec): 5,400000E-2
Scans to average: 1
Electric dark correction enabled: true
Nonlinearity correction enabled: false
Boxcar width: 0
XAxis mode: Wavelengths
Number of Pixels in Spectrum: 2048
>>>>>Begin Spectral Data<<<<<
190,252	-71,96
190,715	-71,96
191,177	-71,96
191,64	-69,49
192,102	-143,62
192,565	-121,38
193,027	-94,2
193,49	-106,56
193,952	-54,67
194,415	-47,26
194,877	-7,72
195,339	-22,55
195,802	58,99
196,264	12,05
196,726	-5,25
197,188	39,23
197,65	91,11
198,112	19,46
198,574	19,46
199,036	101
199,498	118,29
199,96	113,35
200,421	192,42
200,883	212,19
201,345	227,01
201,807	266,55
202,268	328,32
202,73	313,49
203,191	318,43
203,653	286,31
204,114	271,49
204,576	375,26
205,037	283,84
205,498	370,32
205,96	340,67
206,421	402,44
206,882	311,02
207,343	392,56
207,804	392,56
208,265	377,73
208,726	372,79
209,187	441,98
209,648	441,98
210,109	437,04
210,57	414,8
211,031	417,27
211,492	427,15
211,952	446,92
212,413	434,57
212,874	355,5
213,334	419,74
213,795	390,09
214,255	360,44
214,716	360,44
215,176	395,03
215,636	392,56
216,097	348,08
216,557	273,96
217,017	392,56
217,477	419,74
217,938	382,68
218,398	355,5
218,858	323,38
219,318	353,03
219,778	397,5
220,238	367,85
220,698	375,26
221,157	348,08
221,617	362,91
222,077	380,21
222,537	311,02
222,996	370,32
223,456	325,85
223,915	308,55
224,375	367,85
224,834	323,38
225,294	387,62
225,753	390,09
226,213	355,5
226,672	395,03
227,131	392,56
227,59	315,96
228,05	372,79
228,509	375,26
228,968	399,97
229,427	333,26
229,886	330,79
230,345	338,2
230,804	355,5
231,263	362,91
231,721	377,73
232,18	357,97
232,639	414,8
233,098	360,44
233,556	328,32
234,015	385,15
234,473	395,03
234,932	355,5
235,39	412,33
235,849	306,08
236,307	345,61
236,765	320,9
237,224	380,21
237,682	441,98
238,14	296,2
238,598	395,03
239,056	417,27
239,514	323,38
239,972	367,85
240,43	325,85
240,888	375,26
241,346	380,21
241,804	343,14
242,262	399,97
242,72	355,5
243,177	424,68
243,635	353,03
244,093	402,44
244,55	348,08
245,008	370,32
245,465	424,68
245,923	323,38
246,38	343,14
246,837	390,09
247,295	367,85
247,752	315,96
248,209	318,43
248,666	397,5
249,123	377,73
249,58	385,15
250,037	380,21
250,494	380,21
250,951	375,26
251,408	315,96
251,865	385,15
252,322	367,85
252,779	367,85
253,235	454,33
253,692	340,67
254,149	385,15
254,605	409,86
255,062	350,56
255,518	266,55
255,975	318,43
256,431	399,97
256,887	407,39
257,344	427,15
257,8	414,8
258,256	414,8
258,712	303,61
259,168	409,86
259,625	360,44
260,081	355,5
260,537	395,03
260,992	412,33
261,448	427,15
261,904	407,39
262,36	419,74
262,816	409,86
263,272	343,14
263,727	424,68
264,183	340,67
264,638	377,73
265,094	333,26
265,549	362,91
266,005	395,03
266,46	382,68
266,916	350,56
267,371	461,74
267,826	407,39
268,281	419,74
268,737	397,5
269,192	397,5
269,647	456,8
270,102	306,08
270,557	427,15
271,012	409,86
271,467	370,32
271,921	350,56
272,376	439,51
272,831	355,5
273,286	367,85
273,74	367,85
274,195	372,79
274,649	417,27
275,104	385,15
275,558	419,74
276,013	330,79
276,467	402,44
276,922	449,39
277,376	395,03
277,83	446,92
278,284	471,63
278,739	417,27
279,193	372,79
279,647	335,73
280,101	380,21
280,555	422,21
281,009	375,26
281,462	407,39
281,916	434,57
282,37	422,21
282,824	456,8
283,278	444,45
283,731	355,5
284,185	385,15
284,638	362,91
285,092	370,32
285,545	449,39
285,999	454,33
286,452	404,91
286,905	313,49
287,359	437,04
287,812	387,62
288,265	409,86
288,718	429,62
289,171	417,27
289,624	454,33
290,077	434,57
290,53	422,21
290,983	382,68
291,436	444,45
291,889	444,45
292,342	325,85
292,794	412,33
293,247	441,98
293,7	434,57
294,152	439,51
294,605	395,03
295,057	427,15
295,51	417,27
295,962	434,57
296,414	397,5
296,867	380,21
297,319	399,97
297,771	380,21
298,223	399,97
298,675	444,45
299,128	461,74
299,58	417,27
300,032	417,27
300,483	308,55
300,935	404,91
301,387	441,98
301,839	404,91
302,291	375,26
302,742	434,57
303,194	404,91
303,646	402,44
304,097	459,27
304,549	454,33
305	390,09
305,451	404,91
305,903	441,98
306,354	382,68
306,805	424,68
307,257	397,5
307,708	404,91
308,159	382,68
308,61	338,2
309,061	409,86
309,512	355,5
309,963	459,27
310,414	407,39
310,865	429,62
311,315	437,04
311,766	340,67
312,217	392,56
312,668	355,5
313,118	392,56
313,569	395,03
314,019	377,73
314,47	353,03
314,92	380,21
315,37	417,27
315,821	395,03
316,271	409,86
316,721	432,09
317,171	338,2
317,622	365,38
318,072	345,61
318,522	382,68
318,972	377,73
319,422	434,57
319,872	414,8
320,321	375,26
320,771	417,27
321,221	395,03
321,671	444,45
322,12	419,74
322,57	459,27
323,019	429,62
323,469	404,91
323,918	370,32
324,368	402,44
324,817	387,62
325,267	422,21
325,716	365,38
326,165	432,09
326,614	387,62
327,063	409,86
327,512	446,92
327,961	454,33
328,41	437,04
328,859	429,62
329,308	412,33
329,757	444,45
330,206	419,74
330,655	390,09
331,103	392,56
331,552	382,68
332,001	414,8
332,449	446,92
332,898	407,39
333,346	427,15
333,794	412,33
334,243	429,62
334,691	439,51
335,139	439,51
335,588	345,61
336,036	377,73
336,484	377,73
336,932	367,85
337,38	456,8
337,828	399,97
338,276	454,33
338,724	365,38
339,172	414,8
339,619	419,74
340,067	382,68
340,515	350,56
340,962	385,15
341,41	409,86
341,858	417,27
342,305	427,15
342,753	446,92
343,2	409,86
343,647	397,5
344,095	404,91
344,542	325,85
344,989	439,51
345,436	377,73
345,883	385,15
346,33	375,26
346,777	390,09
347,224	382,68
347,671	434,57
348,118	429,62
348,565	449,39
349,012	427,15
349,458	397,5
349,905	365,38
350,352	427,15
350,798	437,04
351,245	419,74
351,691	434,57
352,138	409,86
352,584	454,33
353,03	424,68
353,477	481,51
353,923	409,86
354,369	417,27
354,815	306,08
355,261	380,21
355,707	362,91
356,153	407,39
356,599	375,26
357,045	493,87
357,491	412,33
357,937	382,68
358,382	459,27
358,828	399,97
359,274	395,03
359,719	466,69
360,165	402,44
360,61	422,21
361,056	437,04
361,501	449,39
361,947	434,57
362,392	417,27
362,837	402,44
363,282	399,97
363,727	338,2
364,173	479,04
364,618	424,68
365,063	372,79
365,508	427,15
365,952	390,09
366,397	407,39
366,842	385,15
367,287	397,5
367,732	464,22
368,176	377,73
368,621	390,09
369,065	414,8
369,51	444,45
369,954	469,16
370,399	375,26
370,843	432,09
371,287	409,86
371,732	375,26
372,176	343,14
372,62	429,62
373,064	367,85
373,508	422,21
373,952	419,74
374,396	466,69
374,84	377,73
375,284	434,57
375,728	377,73
376,172	417,27
376,615	399,97
377,059	385,15
377,503	399,97
377,946	360,44
378,39	454,33
378,833	343,14
379,277	330,79
379,72	343,14
380,163	362,91
380,607	404,91
381,05	491,4
381,493	343,14
381,936	412,33
382,379	382,68
382,822	459,27
383,265	402,44
383,708	432,09
384,151	372,79
384,594	427,15
385,037	437,04
385,479	432,09
385,922	422,21
386,365	387,62
386,807	399,97
387,25	434,57
387,692	461,74
388,135	343,14
388,577	399,97
389,019	392,56
389,461	454,33
389,904	392,56
390,346	407,39
390,788	402,44
391,23	372,79
391,672	395,03
392,114	402,44
392,556	459,27
392,998	402,44
393,44	441,98
393,881	449,39
394,323	357,97
394,765	397,5
395,206	372,79
395,648	427,15
396,09	451,86
396,531	429,62
396,972	444,45
397,414	387,62
397,855	399,97
398,296	387,62
398,738	451,86
399,179	464,22
399,62	380,21
400,061	417,27
400,502	385,15
400,943	422,21
401,384	449,39
401,825	432,09
402,265	370,32
402,706	385,15
403,147	382,68
403,588	382,68
404,028	446,92
404,469	387,62
404,909	429,62
405,35	432,09
405,79	427,15
406,23	449,39
406,671	439,51
407,111	407,39
407,551	422,21
407,991	390,09
408,431	437,04
408,871	486,45
409,311	414,8
409,751	417,27
410,191	432,09
410,631	360,44
411,071	395,03
411,511	355,5
411,95	409,86
412,39	417,27
412,83	412,33
413,269	409,86
413,709	429,62
414,148	427,15
414,587	399,97
415,027	328,32
415,466	382,68
415,905	441,98
416,345	370,32
416,784	343,14
417,223	350,56
417,662	402,44
418,101	402,44
418,54	367,85
418,979	387,62
419,417	412,33
419,856	427,15
420,295	417,27
420,734	449,39
421,172	444,45
421,611	372,79
422,049	429,62
422,488	404,91
422,926	412,33
423,364	424,68
423,803	427,15
424,241	412,33
424,679	414,8
425,117	397,5
425,555	429,62
425,994	395,03
426,432	422,21
426,87	429,62
427,307	419,74
427,745	501,28
428,183	424,68
428,621	466,69
429,058	451,86
429,496	461,74
429,934	481,51
430,371	380,21
430,809	429,62
431,246	456,8
431,684	461,74
432,121	471,63
432,558	461,74
432,995	476,57
433,433	449,39
433,87	451,86
434,307	412,33
434,744	461,74
435,181	508,69
435,618	550,7
436,055	486,45
436,491	521,05
436,928	506,22
437,365	441,98
437,801	437,04
438,238	454,33
438,675	441,98
439,111	454,33
439,548	476,57
439,984	479,04
440,42	439,51
440,857	486,45
441,293	488,92
441,729	459,27
442,165	446,92
442,601	525,99
443,037	528,46
443,473	511,16
443,909	496,34
444,345	548,23
444,781	429,62
445,217	451,86
445,652	437,04
446,088	488,92
446,524	525,99
446,959	486,45
447,395	496,34
447,83	498,81
448,266	471,63
448,701	528,46
449,136	429,62
449,572	498,81
450,007	545,75
450,442	521,05
450,877	511,16
451,312	511,16
451,747	471,63
452,182	395,03
452,617	570,46
453,052	555,64
453,486	511,16
453,921	521,05
454,356	479,04
454,79	545,75
455,225	523,52
455,66	570,46
456,094	555,64
456,528	521,05
456,963	483,98
457,397	483,98
457,831	516,1
458,265	483,98
458,7	432,09
459,134	498,81
459,568	474,1
460,002	479,04
460,436	469,16
460,87	456,8
461,303	471,63
461,737	513,63
462,171	501,28
462,605	486,45
463,038	523,52
463,472	471,63
463,905	493,87
464,339	486,45
464,772	483,98
465,205	508,69
465,639	511,16
466,072	464,22
466,505	483,98
466,938	558,11
467,371	496,34
467,804	521,05
468,237	503,75
468,67	493,87
469,103	491,4
469,536	469,16
469,969	471,63
470,402	488,92
470,834	469,16
471,267	486,45
471,699	437,04
472,132	545,75
472,564	511,16
472,997	481,51
473,429	518,57
473,861	587,76
474,294	543,28
474,726	535,87
475,158	506,22
475,59	570,46
476,022	555,64
476,454	656,94
476,886	686,59
477,318	770,6
477,75	871,91
478,181	1062,17
478,613	1163,47
479,045	1217,83
479,476	1333,96
479,908	1566,23
480,339	1558,81
480,771	1652,71
481,202	1571,17
481,634	1521,75
482,065	1504,45
482,496	1642,82
482,927	2164,18
483,358	3127,82
483,789	4368,2
484,22	5870,49
484,651	7718,7
485,082	9517,5
485,513	11491,73
485,944	13105,21
486,375	14345,59
486,805	15363,59
487,236	15753,99
487,667	15583,5
488,097	14755,75
488,527	13181,81
488,958	11783,29
489,388	10342,77
489,819	10024,03
490,249	10609,63
490,679	12761,76
491,109	16228,39
491,539	21078,72
491,969	26858,1
492,399	32069,17
492,829	37556,98
493,259	41544,97
493,689	45322,94
494,119	47235,4
494,548	48861,23
494,978	49417,18
495,408	49918,77
495,837	49528,37
496,267	49679,09
496,696	47922,3
497,126	46269,28
497,555	43252,35
497,984	39968,55
498,413	36630,4
498,843	32212,48
499,272	28852,09
499,701	27021,17
500,13	25182,84
500,559	24911,05
500,988	25751,14
501,417	27772,32
501,845	30757,13
502,274	33672,77
502,703	36833,01
503,131	39521,33
503,56	41100,21
503,988	42938,55
504,417	43724,28
504,845	43173,28
505,274	42323,3
505,702	41522,73
506,13	39511,44
506,558	36993,62
506,987	34759,95
507,415	32022,22
507,843	29561,23
508,271	26603,6
508,699	24515,71
509,126	22756,44
509,554	20671,03
509,982	19351,58
510,41	18316,28
510,837	16917,77
511,265	15825,64
511,693	14876,83
512,12	13372,06
512,547	12769,17
512,975	11229,81
513,402	10135,22
513,829	8815,77
514,257	7768,12
514,684	6730,35
515,111	6023,68
515,538	5289,83
515,965	4728,94
516,392	4165,59
516,819	3745,54
517,246	3486,09
517,672	3350,2
518,099	3105,58
518,526	3155
518,952	2999,33
519,379	2789,31
519,805	2618,82
520,232	2505,16
520,658	2287,72
521,085	2151,82
521,511	1926,97
521,937	1833,08
522,363	1726,83
522,789	1712,01
523,215	1519,28
523,641	1447,62
524,067	1405,62
524,493	1405,62
524,919	1329,02
525,345	1227,72
525,771	1005,34
526,196	1032,52
526,622	1032,52
527,047	990,51
527,473	933,68
527,898	980,63
528,324	891,68
528,749	817,55
529,174	854,61
529,6	827,43
530,025	839,79
530,45	869,44
530,875	812,61
531,3	807,67
531,725	778,02
532,15	726,13
532,575	765,66
532,999	736,01
533,424	718,72
533,849	684,12
534,273	748,37
534,698	718,72
535,122	644,59
535,547	659,41
535,971	671,77
536,396	713,77
536,82	708,83
537,244	691,54
537,668	629,76
538,092	716,24
538,517	652
538,941	674,24
539,364	701,42
539,788	763,19
540,212	703,89
540,636	661,89
541,06	691,54
541,483	691,54
541,907	706,36
542,331	696,48
542,754	716,24
543,178	652
543,601	686,59
544,024	758,25
544,448	718,72
544,871	718,72
545,294	770,6
545,717	728,6
546,14	916,39
546,563	876,85
546,986	852,14
547,409	824,96
547,832	718,72
548,255	792,84
548,677	733,54
549,1	765,66
549,522	728,6
549,945	689,07
550,368	656,94
550,79	716,24
551,212	674,24
551,635	674,24
552,057	694,01
552,479	694,01
552,901	649,53
553,323	736,01
553,745	721,19
554,167	666,83
554,589	721,19
555,011	679,18
555,433	768,13
555,855	701,42
556,277	703,89
556,698	696,48
557,12	669,3
557,541	718,72
557,963	750,84
558,384	647,06
558,806	753,31
559,227	694,01
559,648	689,07
560,069	706,36
560,49	703,89
560,912	731,07
561,333	691,54
561,754	718,72
562,174	703,89
562,595	760,72
563,016	716,24
563,437	815,08
563,858	763,19
564,278	731,07
564,699	795,31
565,119	689,07
565,54	842,26
565,96	686,59
566,38	681,65
566,801	733,54
567,221	713,77
567,641	755,78
568,061	792,84
568,481	706,36
568,901	706,36
569,321	681,65
569,741	718,72
570,161	671,77
570,581	694,01
571,001	723,66
571,42	706,36
571,84	787,9
572,259	716,24
572,679	711,3
573,098	706,36
573,518	684,12
573,937	718,72
574,356	703,89
574,775	706,36
575,195	837,32
575,614	770,6
576,033	778,02
576,452	780,49
576,871	871,91
577,29	857,08
577,708	839,79
578,127	886,74
578,546	864,5
578,964	854,61
579,383	881,79
579,801	824,96
580,22	792,84
580,638	802,73
581,057	802,73
581,475	800,25
581,893	832,38
582,311	785,43
582,73	918,86
583,148	829,9
583,566	1007,81
583,984	790,37
584,401	797,78
584,819	795,31
585,237	745,9
585,655	750,84
586,072	666,83
586,49	738,48
586,908	728,6
587,325	753,31
587,742	745,9
588,16	812,61
588,577	773,07
588,994	817,55
589,412	780,49
589,829	748,37
590,246	839,79
590,663	795,31
591,08	817,55
591,497	800,25
591,914	797,78
592,33	745,9
592,747	713,77
593,164	748,37
593,58	681,65
593,997	694,01
594,413	694,01
594,83	731,07
595,246	669,3
595,663	617,41
596,079	750,84
596,495	642,12
596,911	696,48
597,327	743,42
597,743	679,18
598,159	736,01
598,575	736,01
598,991	684,12
599,407	691,54
599,823	733,54
600,238	580,35
600,654	728,6
601,07	726,13
601,485	706,36
601,901	666,83
602,316	669,3
602,731	703,89
603,147	669,3
603,562	694,01
603,977	669,3
604,392	644,59
604,807	701,42
605,222	610
605,637	661,89
606,052	580,35
606,467	567,99
606,882	553,17
607,296	669,3
607,711	602,58
608,125	634,71
608,54	614,94
608,954	592,7
609,369	555,64
609,783	632,23
610,197	572,93
610,612	558,11
611,026	617,41
611,44	528,46
611,854	592,7
612,268	656,94
612,682	535,87
613,096	624,82
613,51	595,17
613,923	548,23
614,337	550,7
614,751	587,76
615,164	553,17
615,578	637,18
615,991	540,81
616,405	540,81
616,818	496,34
617,231	548,23
617,645	535,87
618,058	600,11
618,471	550,7
618,884	617,41
619,297	521,05
619,71	582,82
620,123	585,29
620,536	545,75
620,948	575,4
621,361	491,4
621,774	563,05
622,186	528,46
622,599	612,47
623,011	523,52
623,424	535,87
623,836	533,4
624,248	565,52
624,661	548,23
625,073	607,53
625,485	474,1
625,897	592,7
626,309	577,88
626,721	525,99
627,133	545,75
627,545	508,69
627,956	513,63
628,368	550,7
628,78	523,52
629,191	543,28
629,603	525,99
630,014	508,69
630,426	545,75
630,837	548,23
631,248	533,4
631,66	523,52
632,071	501,28
632,482	503,75
632,893	501,28
633,304	479,04
633,715	563,05
634,126	525,99
634,536	548,23
634,947	525,99
635,358	560,58
635,769	587,76
636,179	459,27
636,59	530,93
637	528,46
637,41	545,75
637,821	575,4
638,231	491,4
638,641	427,15
639,051	506,22
639,462	479,04
639,872	464,22
640,282	486,45
640,691	528,46
641,101	518,57
641,511	511,16
641,921	414,8
642,331	479,04
642,74	471,63
643,15	525,99
643,559	511,16
643,969	449,39
644,378	486,45
644,787	491,4
645,197	444,45
645,606	432,09
646,015	481,51
646,424	464,22
646,833	496,34
647,242	479,04
647,651	471,63
648,06	441,98
648,469	479,04
648,877	479,04
649,286	432,09
649,694	481,51
650,103	427,15
650,512	466,69
650,92	456,8
651,328	422,21
651,737	432,09
652,145	439,51
652,553	488,92
652,961	459,27
653,369	461,74
653,777	441,98
654,185	437,04
654,593	476,57
655,001	422,21
655,409	412,33
655,816	506,22
656,224	439,51
656,631	414,8
657,039	486,45
657,446	481,51
657,854	390,09
658,261	451,86
658,668	429,62
659,076	365,38
659,483	446,92
659,89	446,92
660,297	466,69
660,704	446,92
661,111	414,8
661,518	429,62
661,924	508,69
662,331	469,16
662,738	409,86
663,144	483,98
663,551	427,15
663,957	412,33
664,364	437,04
664,77	451,86
665,177	469,16
665,583	395,03
665,989	441,98
666,395	498,81
666,801	466,69
667,207	427,15
667,613	439,51
668,019	387,62
668,425	427,15
668,83	414,8
669,236	419,74
669,642	382,68
670,047	429,62
670,453	434,57
670,858	474,1
671,264	466,69
671,669	471,63
672,074	466,69
672,48	434,57
672,885	419,74
673,29	399,97
673,695	397,5
674,1	399,97
674,505	459,27
674,909	402,44
675,314	441,98
675,719	399,97
676,124	387,62
676,528	392,56
676,933	441,98
677,337	382,68
677,742	437,04
678,146	454,33
678,55	476,57
678,955	348,08
679,359	427,15
679,763	365,38
680,167	414,8
680,571	395,03
680,975	370,32
681,379	439,51
681,782	479,04
682,186	444,45
682,59	350,56
682,993	382,68
683,397	392,56
683,8	427,15
684,204	350,56
684,607	382,68
685,011	407,39
685,414	402,44
685,817	399,97
686,22	377,73
686,623	407,39
687,026	434,57
687,429	427,15
687,832	382,68
688,235	370,32
688,638	469,16
689,04	469,16
689,443	390,09
689,845	407,39
690,248	466,69
690,65	446,92
691,053	348,08
691,455	412,33
691,857	429,62
692,26	444,45
692,662	444,45
693,064	459,27
693,466	412,33
693,868	362,91
694,27	380,21
694,671	360,44
695,073	422,21
695,475	417,27
695,877	387,62
696,278	392,56
696,68	377,73
697,081	367,85
697,483	395,03
697,884	409,86
698,285	362,91
698,686	375,26
699,087	454,33
699,489	375,26
699,89	382,68
700,291	486,45
700,691	444,45
701,092	409,86
701,493	404,91
701,894	422,21
702,294	375,26
702,695	454,33
703,096	343,14
703,496	409,86
703,896	402,44
704,297	306,08
704,697	464,22
705,097	343,14
705,497	372,79
705,897	402,44
706,297	434,57
706,697	375,26
707,097	367,85
707,497	382,68
707,897	357,97
708,297	434,57
708,696	434,57
709,096	340,67
709,495	362,91
709,895	439,51
710,294	390,09
710,694	355,5
711,093	377,73
711,492	432,09
711,891	412,33
712,29	427,15
712,689	385,15
713,088	454,33
713,487	427,15
713,886	392,56
714,285	385,15
714,684	404,91
715,082	414,8
715,481	414,8
715,879	417,27
716,278	414,8
716,676	429,62
717,075	390,09
717,473	454,33
717,871	414,8
718,269	414,8
718,667	348,08
719,065	402,44
719,463	414,8
719,861	424,68
720,259	360,44
720,657	395,03
721,054	451,86
721,452	404,91
721,85	345,61
722,247	441,98
