Data from FLMS187131_15-15-09-075.txt Node
Date: Mon Dec 23 15:15:09 MSK 2024
User: FemtoLab1
Spectrometer: FLMS18713
Trigger mode: 0
Integration Time (sec): 2,800000E-2
Scans to average: 1
Electric dark correction enabled: true
Nonlinearity correction enabled: false
Boxcar width: 0
XAxis mode: Wavelengths
Number of Pixels in Spectrum: 2048
>>>>>Begin Spectral Data<<<<<
190,252	-22,86
190,715	-22,86
191,177	-22,86
191,64	-52,51
192,102	-96,98
192,565	-101,92
193,027	-89,57
193,49	-153,81
193,952	-52,51
194,415	-148,87
194,877	-22,86
195,339	-79,69
195,802	-27,8
196,264	11,74
196,726	43,86
197,188	56,21
197,65	29,03
198,112	127,87
198,574	108,1
199,036	125,4
199,498	174,81
199,96	157,52
200,421	201,99
200,883	206,94
201,345	239,06
201,807	204,46
202,268	300,83
202,73	387,31
203,191	276,12
203,653	335,42
204,114	293,42
204,576	263,77
205,037	350,25
205,498	335,42
205,96	419,43
206,421	416,96
206,882	367,54
207,343	397,19
207,804	350,25
208,265	347,78
208,726	414,49
209,187	365,07
209,648	374,96
210,109	451,55
210,57	389,78
211,031	384,84
211,492	468,85
211,952	419,43
212,413	397,19
212,874	392,25
213,334	365,07
213,795	397,19
214,255	397,19
214,716	414,49
215,176	397,19
215,636	345,3
216,097	379,9
216,557	365,07
217,017	409,55
217,477	384,84
217,938	365,07
218,398	382,37
218,858	320,6
219,318	426,84
219,778	399,66
220,238	345,3
220,698	367,54
221,157	303,3
221,617	389,78
222,077	303,3
222,537	449,08
222,996	409,55
223,456	436,73
223,915	402,13
224,375	347,78
224,834	421,9
225,294	352,72
225,753	389,78
226,213	337,89
226,672	350,25
227,131	416,96
227,59	308,24
228,05	352,72
228,509	360,13
228,968	397,19
229,427	330,48
229,886	419,43
230,345	426,84
230,804	362,6
231,263	379,9
231,721	407,08
232,18	397,19
232,639	419,43
233,098	332,95
233,556	337,89
234,015	399,66
234,473	404,61
234,932	318,13
235,39	412,02
235,849	325,54
236,307	367,54
236,765	419,43
237,224	345,3
237,682	431,79
238,14	379,9
238,598	325,54
239,056	313,18
239,514	389,78
239,972	412,02
240,43	392,25
240,888	330,48
241,346	402,13
241,804	352,72
242,262	397,19
242,72	382,37
243,177	387,31
243,635	342,83
244,093	402,13
244,55	374,96
245,008	372,48
245,465	439,2
245,923	352,72
246,38	372,48
246,837	439,2
247,295	392,25
247,752	377,43
248,209	352,72
248,666	392,25
249,123	342,83
249,58	372,48
250,037	424,37
250,494	382,37
250,951	382,37
251,408	352,72
251,865	362,6
252,322	404,61
252,779	441,67
253,235	416,96
253,692	337,89
254,149	372,48
254,605	468,85
255,062	441,67
255,518	409,55
255,975	374,96
256,431	352,72
256,887	342,83
257,344	412,02
257,8	357,66
258,256	399,66
258,712	392,25
259,168	407,08
259,625	421,9
260,081	404,61
260,537	402,13
260,992	451,55
261,448	414,49
261,904	451,55
262,36	434,26
262,816	412,02
263,272	387,31
263,727	350,25
264,183	412,02
264,638	414,49
265,094	397,19
265,549	389,78
266,005	446,61
266,46	402,13
266,916	370,01
267,371	374,96
267,826	426,84
268,281	409,55
268,737	372,48
269,192	402,13
269,647	439,2
270,102	374,96
270,557	387,31
271,012	402,13
271,467	402,13
271,921	372,48
272,376	444,14
272,831	424,37
273,286	387,31
273,74	416,96
274,195	402,13
274,649	458,96
275,104	335,42
275,558	429,31
276,013	379,9
276,467	426,84
276,922	362,6
277,376	399,66
277,83	416,96
278,284	362,6
278,739	444,14
279,193	426,84
279,647	491,09
280,101	414,49
280,555	456,49
281,009	468,85
281,462	414,49
281,916	436,73
282,37	444,14
282,824	414,49
283,278	357,66
283,731	379,9
284,185	404,61
284,638	463,91
285,092	389,78
285,545	449,08
285,999	382,37
286,452	399,66
286,905	419,43
287,359	412,02
287,812	412,02
288,265	451,55
288,718	476,26
289,171	491,09
289,624	421,9
290,077	372,48
290,53	402,13
290,983	439,2
291,436	392,25
291,889	412,02
292,342	397,19
292,794	441,67
293,247	332,95
293,7	407,08
294,152	362,6
294,605	429,31
295,057	471,32
295,51	466,38
295,962	444,14
296,414	451,55
296,867	412,02
297,319	441,67
297,771	379,9
298,223	399,66
298,675	367,54
299,128	431,79
299,58	402,13
300,032	397,19
300,483	392,25
300,935	449,08
301,387	402,13
301,839	451,55
302,291	444,14
302,742	402,13
303,194	382,37
303,646	461,44
304,097	451,55
304,549	379,9
305	456,49
305,451	456,49
305,903	446,61
306,354	441,67
306,805	407,08
307,257	414,49
307,708	488,62
308,159	468,85
308,61	426,84
309,061	399,66
309,512	389,78
309,963	441,67
310,414	461,44
310,865	350,25
311,315	486,14
311,766	412,02
312,217	416,96
312,668	372,48
313,118	372,48
313,569	434,26
314,019	441,67
314,47	419,43
314,92	446,61
315,37	456,49
315,821	394,72
316,271	436,73
316,721	451,55
317,171	439,2
317,622	488,62
318,072	404,61
318,522	458,96
318,972	481,2
319,422	421,9
319,872	456,49
320,321	458,96
320,771	392,25
321,221	397,19
321,671	372,48
322,12	463,91
322,57	446,61
323,019	471,32
323,469	458,96
323,918	402,13
324,368	379,9
324,817	449,08
325,267	456,49
325,716	466,38
326,165	530,62
326,614	416,96
327,063	446,61
327,512	355,19
327,961	365,07
328,41	481,2
328,859	439,2
329,308	434,26
329,757	444,14
330,206	449,08
330,655	412,02
331,103	392,25
331,552	399,66
332,001	493,56
332,449	421,9
332,898	441,67
333,346	387,31
333,794	486,14
334,243	439,2
334,691	441,67
335,139	456,49
335,588	414,49
336,036	449,08
336,484	471,32
336,932	382,37
337,38	414,49
337,828	409,55
338,276	347,78
338,724	426,84
339,172	421,9
339,619	414,49
340,067	352,72
340,515	454,02
340,962	454,02
341,41	451,55
341,858	483,67
342,305	392,25
342,753	419,43
343,2	488,62
343,647	436,73
344,095	419,43
344,542	397,19
344,989	402,13
345,436	377,43
345,883	429,31
346,33	397,19
346,777	434,26
347,224	416,96
347,671	379,9
348,118	407,08
348,565	508,38
349,012	429,31
349,458	478,73
349,905	446,61
350,352	444,14
350,798	372,48
351,245	471,32
351,691	421,9
352,138	483,67
352,584	419,43
353,03	377,43
353,477	476,26
353,923	461,44
354,369	454,02
354,815	436,73
355,261	454,02
355,707	424,37
356,153	416,96
356,599	399,66
357,045	424,37
357,491	434,26
357,937	439,2
358,382	374,96
358,828	451,55
359,274	483,67
359,719	404,61
360,165	436,73
360,61	409,55
361,056	397,19
361,501	394,72
361,947	424,37
362,392	468,85
362,837	436,73
363,282	409,55
363,727	419,43
364,173	508,38
364,618	451,55
365,063	374,96
365,508	392,25
365,952	471,32
366,397	426,84
366,842	500,97
367,287	429,31
367,732	431,79
368,176	481,2
368,621	493,56
369,065	436,73
369,51	362,6
369,954	407,08
370,399	416,96
370,843	429,31
371,287	409,55
371,732	407,08
372,176	493,56
372,62	409,55
373,064	446,61
373,508	451,55
373,952	434,26
374,396	458,96
374,84	426,84
375,284	429,31
375,728	402,13
376,172	409,55
376,615	402,13
377,059	409,55
377,503	328,01
377,946	421,9
378,39	347,78
378,833	377,43
379,277	402,13
379,72	379,9
380,163	421,9
380,607	419,43
381,05	473,79
381,493	491,09
381,936	446,61
382,379	491,09
382,822	382,37
383,265	463,91
383,708	476,26
384,151	444,14
384,594	387,31
385,037	486,14
385,479	439,2
385,922	463,91
386,365	488,62
386,807	409,55
387,25	483,67
387,692	382,37
388,135	444,14
388,577	481,2
389,019	481,2
389,461	454,02
389,904	466,38
390,346	399,66
390,788	416,96
391,23	471,32
391,672	414,49
392,114	454,02
392,556	441,67
392,998	449,08
393,44	387,31
393,881	473,79
394,323	439,2
394,765	481,2
395,206	426,84
395,648	419,43
396,09	424,37
396,531	402,13
396,972	421,9
397,414	439,2
397,855	416,96
398,296	365,07
398,738	372,48
399,179	431,79
399,62	407,08
400,061	478,73
400,502	409,55
400,943	426,84
401,384	456,49
401,825	379,9
402,265	352,72
402,706	446,61
403,147	449,08
403,588	404,61
404,028	461,44
404,469	416,96
404,909	429,31
405,35	421,9
405,79	454,02
406,23	416,96
406,671	379,9
407,111	466,38
407,551	476,26
407,991	473,79
408,431	409,55
408,871	357,66
409,311	399,66
409,751	468,85
410,191	478,73
410,631	412,02
411,071	424,37
411,511	451,55
411,95	426,84
412,39	441,67
412,83	441,67
413,269	493,56
413,709	397,19
414,148	493,56
414,587	486,14
415,027	392,25
415,466	449,08
415,905	434,26
416,345	449,08
416,784	419,43
417,223	530,62
417,662	407,08
418,101	434,26
418,54	491,09
418,979	515,8
419,417	431,79
419,856	493,56
420,295	379,9
420,734	446,61
421,172	508,38
421,611	397,19
422,049	424,37
422,488	451,55
422,926	449,08
423,364	426,84
423,803	424,37
424,241	449,08
424,679	456,49
425,117	397,19
425,555	439,2
425,994	508,38
426,432	461,44
426,87	434,26
427,307	434,26
427,745	466,38
428,183	441,67
428,621	421,9
429,058	523,21
429,496	384,84
429,934	434,26
430,371	436,73
430,809	426,84
431,246	444,14
431,684	458,96
432,121	429,31
432,558	404,61
432,995	468,85
433,433	473,79
433,87	461,44
434,307	402,13
434,744	409,55
435,181	481,2
435,618	444,14
436,055	496,03
436,491	456,49
436,928	436,73
437,365	416,96
437,801	473,79
438,238	434,26
438,675	429,31
439,111	424,37
439,548	434,26
439,984	419,43
440,42	498,5
440,857	451,55
441,293	444,14
441,729	434,26
442,165	500,97
442,601	471,32
443,037	426,84
443,473	493,56
443,909	478,73
444,345	505,91
444,781	540,5
445,217	503,44
445,652	513,32
446,088	466,38
446,524	449,08
446,959	481,2
447,395	419,43
447,83	439,2
448,266	404,61
448,701	461,44
449,136	500,97
449,572	550,39
450,007	436,73
450,442	463,91
450,877	456,49
451,312	456,49
451,747	451,55
452,182	414,49
452,617	488,62
453,052	473,79
453,486	409,55
453,921	421,9
454,356	493,56
454,79	505,91
455,225	528,15
455,66	476,26
456,094	446,61
456,528	473,79
456,963	414,49
457,397	520,74
457,831	473,79
458,265	478,73
458,7	458,96
459,134	493,56
459,568	505,91
460,002	444,14
460,436	397,19
460,87	412,02
461,303	533,09
461,737	498,5
462,171	523,21
462,605	414,49
463,038	486,14
463,472	439,2
463,905	431,79
464,339	454,02
464,772	478,73
465,205	439,2
465,639	471,32
466,072	486,14
466,505	468,85
466,938	525,68
467,371	481,2
467,804	456,49
468,237	478,73
468,67	520,74
469,103	434,26
469,536	416,96
469,969	518,27
470,402	476,26
470,834	431,79
471,267	523,21
471,699	493,56
472,132	441,67
472,564	523,21
472,997	515,8
473,429	434,26
473,861	557,8
474,294	431,79
474,726	508,38
475,158	473,79
475,59	434,26
476,022	540,5
476,454	535,56
476,886	515,8
477,318	533,09
477,75	513,32
478,181	520,74
478,613	557,8
479,045	542,97
479,476	597,33
479,908	567,68
480,339	644,28
480,771	654,16
481,202	706,05
481,634	896,31
482,065	1034,68
482,496	1111,28
482,927	1254,59
483,358	1316,36
483,789	1286,71
484,22	1187,87
484,651	1158,22
485,082	1224,94
485,513	1496,73
485,944	1654,87
486,375	1694,4
486,805	1798,18
487,236	2010,67
487,667	1810,53
488,097	1731,47
488,527	1509,09
488,958	1299,06
489,388	1222,47
489,819	1308,95
490,249	1679,58
490,679	2388,72
491,109	3372,13
491,539	4716,28
491,969	6974,66
492,399	9299,75
492,829	12336,46
493,259	15763,56
493,689	19366,1
494,119	23489,98
494,548	27856,02
494,978	32703,87
495,408	36736,34
495,837	39782,93
496,267	43103,79
496,696	45124,96
497,126	46372,75
497,555	46456,76
497,984	46288,74
498,413	44771,63
498,843	43894,46
499,272	41930,12
499,701	41107,32
500,13	40143,68
500,559	39454,3
500,988	40131,32
501,417	40321,58
501,845	42216,74
502,274	44057,54
502,703	46511,12
503,131	49043,77
503,56	51880,33
503,988	52601,83
504,417	53511,11
504,845	53439,45
505,274	53330,73
505,702	51971,75
506,13	50405,22
506,558	48907,87
506,987	47341,33
507,415	45646,31
507,843	43504,07
508,271	41984,48
508,699	39827,41
509,126	38115,09
509,554	35780,11
509,982	33160,99
510,41	30312,07
510,837	28135,23
511,265	25876,85
511,693	24584,58
512,12	23107
512,547	23018,05
512,975	22961,22
513,402	22667,18
513,829	23331,85
514,257	23161,36
514,684	23813,67
515,111	24213,95
515,538	24577,17
515,965	25422,21
516,392	25412,32
516,819	25076,29
517,246	24337,49
517,672	23667,89
518,099	21965,46
518,526	20660,83
518,952	18832,39
519,379	17238,67
519,805	15509,06
520,232	14352,69
520,658	13141,96
521,085	12198,09
521,511	11721,21
521,937	11874,4
522,363	11780,51
522,789	12069,6
523,215	12778,74
523,641	13095,02
524,067	13695,44
524,493	14468,82
524,919	14839,45
525,345	15783,33
525,771	16233,03
526,196	16596,25
526,622	16929,81
527,047	17129,95
527,473	17335,04
527,898	16986,64
528,324	17132,42
528,749	17058,3
529,174	17107,72
529,6	16821,09
530,025	16922,4
530,45	16541,89
530,875	16578,95
531,3	16371,4
531,725	16153,96
532,15	15936,52
532,575	15439,88
532,999	15494,24
533,424	15173,02
533,849	15029,71
534,273	14817,22
534,698	14142,67
535,122	13809,1
535,547	13905,46
535,971	13962,29
536,396	13688,03
536,82	13188,91
537,244	12847,93
537,668	13065,37
538,092	13240,8
538,517	13421,17
538,941	13048,07
539,364	12319,16
539,788	11899,11
540,212	11832,4
540,636	11829,93
541,06	12477,3
541,483	12509,42
541,907	12373,52
542,331	11963,36
542,754	12047,37
543,178	11595,2
543,601	11644,61
544,024	11953,47
544,448	11862,05
544,871	12121,49
545,294	11958,41
545,717	11597,67
546,14	11101,02
546,563	10485,77
546,986	9989,13
547,409	9868,05
547,832	10176,91
548,255	11439,53
548,677	13040,66
549,1	14486,12
549,522	15168,08
549,945	16260,21
550,368	16971,82
550,79	17228,79
551,212	16986,64
551,635	17263,38
552,057	16860,63
552,479	16746,97
552,901	16850,75
553,323	17347,39
553,745	18162,78
554,167	18382,69
554,589	18701,43
555,011	18610,01
555,433	19005,35
555,855	19358,68
556,277	18733,55
556,698	17463,52
557,12	16870,51
557,541	15481,88
557,963	13655,9
558,384	11916,41
558,806	10302,93
559,227	8835,23
559,648	7720,86
560,069	6485,43
560,49	5684,86
560,912	4904,07
561,333	4362,95
561,754	3967,61
562,174	3656,28
562,595	3512,97
563,016	3414,13
563,437	3564,85
563,858	3673,57
564,278	3814,41
564,699	3891,01
565,119	3727,93
565,54	3688,4
565,96	3554,97
566,38	3458,61
566,801	3169,51
567,221	2905,13
567,641	2707,46
568,061	2566,62
568,481	2351,65
568,901	2077,39
569,321	1936,55
569,741	1941,49
570,161	1934,08
570,581	1887,13
571,001	1985,97
571,42	1911,84
571,84	1894,54
572,259	1953,84
572,679	2114,45
573,098	2494,97
573,518	2739,58
573,937	3021,26
574,356	3451,19
574,775	3661,22
575,195	3989,84
575,614	4362,95
576,033	4647,1
576,452	4842,3
576,871	4938,66
577,29	5541,55
577,708	5897,36
578,127	6863,47
578,546	7728,28
578,964	8728,98
579,383	9361,53
579,801	9514,72
580,22	9371,41
580,638	8454,71
581,057	7817,23
581,475	6828,88
581,893	5981,37
582,311	5292
582,73	4745,93
583,148	4555,67
583,566	4694,04
583,984	4664,39
584,401	4968,31
584,819	4723,69
585,237	4437,07
585,655	4269,05
586,072	3690,87
586,49	3441,31
586,908	3112,68
587,325	2554,27
587,742	2410,96
588,16	2245,41
588,577	2163,87
588,994	2163,87
589,412	2161,4
589,829	2223,17
590,246	2282,47
590,663	2336,83
591,08	2410,96
591,497	2472,73
591,914	2880,42
592,33	2831
592,747	2897,72
593,164	2840,89
593,58	2658,04
593,997	2230,58
594,413	2111,98
594,83	1936,55
595,246	1731,47
595,663	1605,45
596,079	1410,25
596,495	1242,23
596,911	1140,93
597,327	1012,44
597,743	1009,97
598,159	1113,75
598,575	1138,46
598,991	1143,4
599,407	1093,98
599,823	1101,39
600,238	975,38
600,654	982,79
601,07	1024,8
601,485	990,2
601,901	1024,8
602,316	1163,16
602,731	1286,71
603,147	1336,13
603,562	1378,13
603,977	1350,95
604,392	1217,52
604,807	1081,63
605,222	977,85
605,637	921,02
606,052	827,13
606,467	834,54
606,882	930,9
607,296	1042,09
607,711	1116,22
608,125	1148,34
608,54	1103,86
608,954	1135,98
609,369	1044,56
609,783	982,79
610,197	992,67
610,612	921,02
611,026	844,42
611,44	807,36
611,854	807,36
612,268	753
612,682	725,82
613,096	723,35
613,51	678,87
613,923	718,41
614,337	671,46
614,751	688,76
615,164	646,75
615,578	644,28
615,991	659,11
616,405	607,22
616,818	644,28
617,231	639,34
617,645	735,7
618,058	659,11
618,471	673,93
618,884	715,94
619,297	822,18
619,71	713,46
620,123	777,71
620,536	814,77
620,948	841,95
621,361	849,36
621,774	765,35
622,186	812,3
622,599	812,3
623,011	735,7
623,424	755,47
623,836	738,17
624,248	755,47
624,661	676,4
625,073	629,46
625,485	580,04
625,897	619,57
626,309	629,46
626,721	619,57
627,133	535,56
627,545	634,4
627,956	688,76
628,368	664,05
628,78	639,34
629,191	607,22
629,603	631,93
630,014	649,22
630,426	602,28
630,837	629,46
631,248	629,46
631,66	597,33
632,071	609,69
632,482	671,46
632,893	683,81
633,304	678,87
633,715	708,52
634,126	678,87
634,536	696,17
634,947	785,12
635,358	748,06
635,769	797,47
636,179	693,7
636,59	753
637	748,06
637,41	698,64
637,821	673,93
638,231	636,87
638,641	686,29
639,051	599,8
639,462	545,45
639,872	602,28
640,282	560,27
640,691	535,56
641,101	589,92
641,511	542,97
641,921	533,09
642,331	520,74
642,74	523,21
643,15	486,14
643,559	577,57
643,969	478,73
644,378	510,85
644,787	528,15
645,197	533,09
645,606	624,51
646,015	659,11
646,424	634,4
646,833	540,5
647,242	547,92
647,651	498,5
648,06	575,1
648,469	533,09
648,877	496,03
649,286	520,74
649,694	461,44
650,103	493,56
650,512	542,97
650,92	547,92
651,328	530,62
651,737	481,2
652,145	626,98
652,553	607,22
652,961	614,63
653,369	614,63
653,777	629,46
654,185	594,86
654,593	575,1
655,001	617,1
655,409	577,57
655,816	584,98
656,224	636,87
656,631	552,86
657,039	624,51
657,446	545,45
657,854	612,16
658,261	535,56
658,668	592,39
659,076	488,62
659,483	542,97
659,89	478,73
660,297	562,74
660,704	542,97
661,111	520,74
661,518	547,92
661,924	545,45
662,331	562,74
662,738	547,92
663,144	560,27
663,551	560,27
663,957	547,92
664,364	503,44
664,77	441,67
665,177	481,2
665,583	486,14
665,989	451,55
666,395	434,26
666,801	461,44
667,207	461,44
667,613	478,73
668,019	486,14
668,425	458,96
668,83	496,03
669,236	496,03
669,642	471,32
670,047	508,38
670,453	505,91
670,858	468,85
671,264	503,44
671,669	481,2
672,074	535,56
672,48	533,09
672,885	540,5
673,29	414,49
673,695	500,97
674,1	409,55
674,505	419,43
674,909	441,67
675,314	513,32
675,719	426,84
676,124	471,32
676,528	505,91
676,933	476,26
677,337	399,66
677,742	434,26
678,146	461,44
678,55	409,55
678,955	493,56
679,359	421,9
679,763	449,08
680,167	486,14
680,571	407,08
680,975	355,19
681,379	421,9
681,782	520,74
682,186	468,85
682,59	414,49
682,993	478,73
683,397	446,61
683,8	392,25
684,204	416,96
684,607	384,84
685,011	412,02
685,414	429,31
685,817	402,13
686,22	468,85
686,623	419,43
687,026	407,08
687,429	500,97
687,832	441,67
688,235	412,02
688,638	471,32
689,04	439,2
689,443	416,96
689,845	407,08
690,248	466,38
690,65	446,61
691,053	456,49
691,455	444,14
691,857	439,2
692,26	404,61
692,662	414,49
693,064	374,96
693,466	439,2
693,868	471,32
694,27	473,79
694,671	434,26
695,073	409,55
695,475	431,79
695,877	426,84
696,278	409,55
696,68	360,13
697,081	416,96
697,483	372,48
697,884	439,2
698,285	416,96
698,686	456,49
699,087	454,02
699,489	412,02
699,89	431,79
700,291	370,01
700,691	374,96
701,092	370,01
701,493	392,25
701,894	397,19
702,294	397,19
702,695	414,49
703,096	431,79
703,496	387,31
703,896	478,73
704,297	365,07
704,697	389,78
705,097	421,9
705,497	419,43
705,897	461,44
706,297	449,08
706,697	392,25
707,097	372,48
707,497	426,84
707,897	416,96
708,297	416,96
708,696	397,19
709,096	496,03
709,495	483,67
709,895	429,31
710,294	458,96
710,694	468,85
711,093	444,14
711,492	424,37
711,891	377,43
712,29	431,79
712,689	387,31
713,088	434,26
713,487	424,37
713,886	419,43
714,285	436,73
714,684	409,55
715,082	449,08
715,481	429,31
715,879	451,55
