Data from FLMS187131_15-20-35-198.txt Node
Date: Mon Dec 23 15:20:35 MSK 2024
User: FemtoLab1
Spectrometer: FLMS18713
Trigger mode: 0
Integration Time (sec): 8,200000E-2
Scans to average: 1
Electric dark correction enabled: true
Nonlinearity correction enabled: false
Boxcar width: 0
XAxis mode: Wavelengths
Number of Pixels in Spectrum: 2048
>>>>>Begin Spectral Data<<<<<
190,252	-92,19
190,715	-92,19
191,177	-92,19
191,64	-87,25
192,102	-45,25
192,565	-84,78
193,027	-119,37
193,49	-102,08
193,952	-82,31
194,415	-146,55
194,877	-92,19
195,339	-15,6
195,802	-79,84
196,264	127,71
196,726	31,35
197,188	28,88
197,65	115,36
198,112	53,59
198,574	93,12
199,036	154,89
199,498	117,83
199,96	201,84
200,421	214,19
200,883	169,72
201,345	251,26
201,807	251,26
202,268	298,2
202,73	335,27
203,191	308,09
203,653	317,97
204,114	317,97
204,576	288,32
205,037	404,45
205,498	426,69
205,96	357,5
206,421	411,86
206,882	362,45
207,343	355,03
207,804	461,28
208,265	382,21
208,726	409,39
209,187	355,03
209,648	359,98
210,109	424,22
210,57	414,33
211,031	476,11
211,492	374,8
211,952	397,04
212,413	404,45
212,874	458,81
213,334	352,56
213,795	394,57
214,255	397,04
214,716	384,68
215,176	446,46
215,636	394,57
216,097	394,57
216,557	362,45
217,017	340,21
217,477	406,92
217,938	364,92
218,398	325,38
218,858	379,74
219,318	342,68
219,778	416,81
220,238	389,63
220,698	295,73
221,157	401,98
221,617	374,8
222,077	387,16
222,537	377,27
222,996	419,28
223,456	399,51
223,915	404,45
224,375	362,45
224,834	392,1
225,294	377,27
225,753	317,97
226,213	355,03
226,672	369,86
227,131	310,56
227,59	377,27
228,05	461,28
228,509	350,09
228,968	401,98
229,427	411,86
229,886	357,5
230,345	335,27
230,804	401,98
231,263	419,28
231,721	448,93
232,18	397,04
232,639	330,33
233,098	359,98
233,556	273,49
234,015	406,92
234,473	397,04
234,932	397,04
235,39	367,39
235,849	409,39
236,307	372,33
236,765	342,68
237,224	382,21
237,682	426,69
238,14	416,81
238,598	414,33
239,056	389,63
239,514	374,8
239,972	352,56
240,43	362,45
240,888	394,57
241,346	392,1
241,804	359,98
242,262	419,28
242,72	424,22
243,177	364,92
243,635	399,51
244,093	421,75
244,55	392,1
245,008	419,28
245,465	374,8
245,923	382,21
246,38	369,86
246,837	340,21
247,295	347,62
247,752	330,33
248,209	359,98
248,666	421,75
249,123	372,33
249,58	436,57
250,037	411,86
250,494	426,69
250,951	434,1
251,408	404,45
251,865	416,81
252,322	399,51
252,779	481,05
253,235	419,28
253,692	414,33
254,149	411,86
254,605	382,21
255,062	434,1
255,518	342,68
255,975	384,68
256,431	404,45
256,887	379,74
257,344	389,63
257,8	345,15
258,256	414,33
258,712	350,09
259,168	416,81
259,625	421,75
260,081	434,1
260,537	429,16
260,992	367,39
261,448	352,56
261,904	384,68
262,36	399,51
262,816	392,1
263,272	372,33
263,727	350,09
264,183	443,99
264,638	397,04
265,094	513,17
265,549	384,68
266,005	392,1
266,46	453,87
266,916	436,57
267,371	350,09
267,826	374,8
268,281	399,51
268,737	404,45
269,192	397,04
269,647	431,63
270,102	409,39
270,557	431,63
271,012	439,04
271,467	382,21
271,921	340,21
272,376	451,4
272,831	443,99
273,286	431,63
273,74	384,68
274,195	411,86
274,649	429,16
275,104	439,04
275,558	394,57
276,013	409,39
276,467	384,68
276,922	357,5
277,376	406,92
277,83	443,99
278,284	451,4
278,739	369,86
279,193	406,92
279,647	436,57
280,101	448,93
280,555	369,86
281,009	387,16
281,462	416,81
281,916	436,57
282,37	416,81
282,824	401,98
283,278	397,04
283,731	342,68
284,185	471,16
284,638	406,92
285,092	429,16
285,545	431,63
285,999	424,22
286,452	409,39
286,905	377,27
287,359	411,86
287,812	453,87
288,265	458,81
288,718	451,4
289,171	456,34
289,624	350,09
290,077	443,99
290,53	411,86
290,983	404,45
291,436	401,98
291,889	431,63
292,342	384,68
292,794	439,04
293,247	473,64
293,7	448,93
294,152	424,22
294,605	394,57
295,057	377,27
295,51	434,1
295,962	466,22
296,414	374,8
296,867	389,63
297,319	441,51
297,771	379,74
298,223	411,86
298,675	394,57
299,128	397,04
299,58	374,8
300,032	431,63
300,483	389,63
300,935	419,28
301,387	372,33
301,839	374,8
302,291	394,57
302,742	406,92
303,194	372,33
303,646	399,51
304,097	350,09
304,549	364,92
305	421,75
305,451	414,33
305,903	406,92
306,354	416,81
306,805	350,09
307,257	350,09
307,708	419,28
308,159	426,69
308,61	461,28
309,061	431,63
309,512	352,56
309,963	421,75
310,414	451,4
310,865	359,98
311,315	443,99
311,766	439,04
312,217	419,28
312,668	419,28
313,118	461,28
313,569	389,63
314,019	392,1
314,47	421,75
314,92	367,39
315,37	409,39
315,821	426,69
316,271	419,28
316,721	458,81
317,171	411,86
317,622	352,56
318,072	481,05
318,522	456,34
318,972	545,29
319,422	379,74
319,872	503,29
320,321	335,27
320,771	426,69
321,221	421,75
321,671	416,81
322,12	463,75
322,57	478,58
323,019	416,81
323,469	364,92
323,918	397,04
324,368	374,8
324,817	392,1
325,267	357,5
325,716	389,63
326,165	392,1
326,614	374,8
327,063	429,16
327,512	387,16
327,961	416,81
328,41	409,39
328,859	359,98
329,308	406,92
329,757	357,5
330,206	466,22
330,655	392,1
331,103	490,93
331,552	406,92
332,001	406,92
332,449	406,92
332,898	414,33
333,346	394,57
333,794	421,75
334,243	436,57
334,691	451,4
335,139	493,4
335,588	399,51
336,036	453,87
336,484	377,27
336,932	424,22
337,38	379,74
337,828	456,34
338,276	384,68
338,724	411,86
339,172	443,99
339,619	500,82
340,067	451,4
340,515	409,39
340,962	389,63
341,41	355,03
341,858	458,81
342,305	399,51
342,753	406,92
343,2	416,81
343,647	409,39
344,095	436,57
344,542	382,21
344,989	421,75
345,436	382,21
345,883	401,98
346,33	397,04
346,777	478,58
347,224	369,86
347,671	434,1
348,118	473,64
348,565	476,11
349,012	476,11
349,458	411,86
349,905	404,45
350,352	409,39
350,798	426,69
351,245	411,86
351,691	434,1
352,138	394,57
352,584	426,69
353,03	441,51
353,477	453,87
353,923	434,1
354,369	429,16
354,815	426,69
355,261	409,39
355,707	404,45
356,153	448,93
356,599	387,16
357,045	456,34
357,491	347,62
357,937	369,86
358,382	431,63
358,828	476,11
359,274	431,63
359,719	327,85
360,165	481,05
360,61	409,39
361,056	451,4
361,501	389,63
361,947	397,04
362,392	409,39
362,837	451,4
363,282	374,8
363,727	456,34
364,173	525,52
364,618	357,5
365,063	409,39
365,508	350,09
365,952	441,51
366,397	431,63
366,842	466,22
367,287	431,63
367,732	392,1
368,176	399,51
368,621	374,8
369,065	406,92
369,51	389,63
369,954	439,04
370,399	446,46
370,843	419,28
371,287	387,16
371,732	471,16
372,176	397,04
372,62	426,69
373,064	406,92
373,508	372,33
373,952	508,23
374,396	446,46
374,84	392,1
375,284	421,75
375,728	419,28
376,172	406,92
376,615	441,51
377,059	493,4
377,503	355,03
377,946	382,21
378,39	352,56
378,833	429,16
379,277	394,57
379,72	419,28
380,163	443,99
380,607	453,87
381,05	411,86
381,493	458,81
381,936	392,1
382,379	473,64
382,822	439,04
383,265	419,28
383,708	421,75
384,151	443,99
384,594	424,22
385,037	456,34
385,479	421,75
385,922	488,46
386,365	394,57
386,807	419,28
387,25	446,46
387,692	374,8
388,135	431,63
388,577	389,63
389,019	441,51
389,461	456,34
389,904	439,04
390,346	443,99
390,788	456,34
391,23	439,04
391,672	392,1
392,114	382,21
392,556	414,33
392,998	426,69
393,44	431,63
393,881	340,21
394,323	399,51
394,765	409,39
395,206	392,1
395,648	448,93
396,09	436,57
396,531	436,57
396,972	342,68
397,414	414,33
397,855	416,81
398,296	401,98
398,738	401,98
399,179	350,09
399,62	394,57
400,061	372,33
400,502	434,1
400,943	453,87
401,384	352,56
401,825	419,28
402,265	448,93
402,706	488,46
403,147	355,03
403,588	439,04
404,028	471,16
404,469	436,57
404,909	466,22
405,35	483,52
405,79	342,68
406,23	429,16
406,671	476,11
407,111	466,22
407,551	345,15
407,991	374,8
408,431	431,63
408,871	490,93
409,311	431,63
409,751	424,22
410,191	488,46
410,631	384,68
411,071	424,22
411,511	468,69
411,95	458,81
412,39	476,11
412,83	429,16
413,269	463,75
413,709	367,39
414,148	357,5
414,587	431,63
415,027	411,86
415,466	429,16
415,905	362,45
416,345	406,92
416,784	448,93
417,223	419,28
417,662	505,76
418,101	458,81
418,54	372,33
418,979	431,63
419,417	372,33
419,856	456,34
420,295	431,63
420,734	394,57
421,172	443,99
421,611	429,16
422,049	436,57
422,488	404,45
422,926	350,09
423,364	404,45
423,803	421,75
424,241	392,1
424,679	478,58
425,117	461,28
425,555	414,33
425,994	448,93
426,432	394,57
426,87	426,69
427,307	394,57
427,745	493,4
428,183	456,34
428,621	419,28
429,058	426,69
429,496	409,39
429,934	463,75
430,371	431,63
430,809	426,69
431,246	476,11
431,684	495,87
432,121	374,8
432,558	443,99
432,995	456,34
433,433	411,86
433,87	495,87
434,307	478,58
434,744	483,52
435,181	411,86
435,618	493,4
436,055	550,23
436,491	574,94
436,928	557,65
437,365	493,4
437,801	523,05
438,238	527,99
438,675	466,22
439,111	530,47
439,548	478,58
439,984	468,69
440,42	490,93
440,857	495,87
441,293	498,34
441,729	584,83
442,165	515,64
442,601	532,94
443,037	471,16
443,473	535,41
443,909	570
444,345	570
444,781	488,46
445,217	547,76
445,652	560,12
446,088	547,76
446,524	527,99
446,959	550,23
447,395	555,17
447,83	572,47
448,266	545,29
448,701	481,05
449,136	552,7
449,572	550,23
450,007	621,89
450,442	560,12
450,877	592,24
451,312	537,88
451,747	602,12
452,182	616,95
452,617	547,76
453,052	523,05
453,486	550,23
453,921	562,59
454,356	550,23
454,79	545,29
455,225	523,05
455,66	523,05
456,094	513,17
456,528	552,7
456,963	471,16
457,397	557,65
457,831	547,76
458,265	547,76
458,7	582,35
459,134	557,65
459,568	461,28
460,002	490,93
460,436	570
460,87	547,76
461,303	520,58
461,737	518,11
462,171	493,4
462,605	582,35
463,038	476,11
463,472	518,11
463,905	471,16
464,339	518,11
464,772	493,4
465,205	510,7
465,639	485,99
466,072	414,33
466,505	510,7
466,938	468,69
467,371	508,23
467,804	416,81
468,237	448,93
468,67	523,05
469,103	535,41
469,536	461,28
469,969	456,34
470,402	456,34
470,834	532,94
471,267	466,22
471,699	448,93
472,132	520,58
472,564	471,16
472,997	478,58
473,429	461,28
473,861	461,28
474,294	448,93
474,726	523,05
475,158	461,28
475,59	443,99
476,022	473,64
476,454	500,82
476,886	429,16
477,318	429,16
477,75	513,17
478,181	439,04
478,613	424,22
479,045	456,34
479,476	565,06
479,908	443,99
480,339	490,93
480,771	523,05
481,202	451,4
481,634	510,7
482,065	508,23
482,496	463,75
482,927	523,05
483,358	483,52
483,789	463,75
484,22	451,4
484,651	463,75
485,082	488,46
485,513	453,87
485,944	404,45
486,375	488,46
486,805	419,28
487,236	500,82
487,667	463,75
488,097	518,11
488,527	525,52
488,958	441,51
489,388	463,75
489,819	527,99
490,249	495,87
490,679	510,7
491,109	483,52
491,539	478,58
491,969	570
492,399	520,58
492,829	468,69
493,259	493,4
493,689	461,28
494,119	513,17
494,548	498,34
494,978	540,35
495,408	562,59
495,837	523,05
496,267	577,41
496,696	599,65
497,126	597,18
497,555	562,59
497,984	597,18
498,413	579,88
498,843	616,95
499,272	550,23
499,701	537,88
500,13	570
500,559	567,53
500,988	599,65
501,417	582,35
501,845	540,35
502,274	592,24
502,703	609,53
503,131	641,66
503,56	626,83
503,988	567,53
504,417	572,47
504,845	552,7
505,274	587,3
505,702	545,29
506,13	609,53
506,558	626,83
506,987	607,06
507,415	584,83
507,843	644,13
508,271	715,78
508,699	654,01
509,126	594,71
509,554	693,54
509,982	703,43
510,41	604,59
510,837	668,83
511,265	644,13
511,693	619,42
512,12	678,72
512,547	658,95
512,975	666,36
513,402	723,19
513,829	750,37
514,257	686,13
514,684	710,84
515,111	733,08
515,538	747,9
515,965	700,96
516,392	688,6
516,819	715,78
517,246	708,37
517,672	789,91
518,099	789,91
518,526	700,96
518,952	728,14
519,379	770,14
519,805	730,61
520,232	765,2
520,658	770,14
521,085	666,36
521,511	750,37
521,937	765,2
522,363	733,08
522,789	666,36
523,215	797,32
523,641	740,49
524,067	782,5
524,493	762,73
524,919	752,84
525,345	730,61
525,771	775,08
526,196	841,8
526,622	807,2
527,047	787,44
527,473	804,73
527,898	817,09
528,324	807,2
528,749	770,14
529,174	839,33
529,6	812,15
530,025	750,37
530,45	765,2
530,875	834,38
531,3	883,8
531,725	797,32
532,15	883,8
532,575	871,45
532,999	772,61
533,424	826,97
533,849	854,15
534,273	822,03
534,698	831,91
535,122	886,27
535,547	928,28
535,971	925,81
536,396	891,21
536,82	856,62
537,244	898,63
537,668	859,09
538,092	814,62
538,517	807,2
538,941	854,15
539,364	859,09
539,788	933,22
540,212	906,04
540,636	923,33
541,06	910,98
541,483	868,98
541,907	915,92
542,331	972,75
542,754	920,86
543,178	945,57
543,601	938,16
544,024	903,57
544,448	970,28
544,871	960,4
545,294	1071,59
545,717	1209,96
546,14	1281,61
546,563	1311,26
546,986	1316,2
547,409	1316,2
547,832	1331,03
548,255	1298,91
548,677	1269,26
549,1	1217,37
549,522	1187,72
549,945	1259,37
550,368	1301,38
550,79	1311,26
551,212	1395,27
551,635	1508,93
552,057	1592,94
552,479	1817,79
552,901	2148,89
553,323	2596,12
553,745	3107,59
554,167	3737,66
554,589	4585,17
555,011	5462,33
555,433	6794,13
555,855	7967,8
556,277	9494,8
556,698	11014,39
557,12	12818,12
557,541	14901,07
557,963	17451,01
558,384	19929,3
558,806	22738,68
559,227	25874,22
559,648	28903,52
560,069	31651,13
560,49	34885,5
560,912	38268,13
561,333	40318,96
561,754	42728,06
562,174	44269,88
562,595	45675,81
563,016	46693,81
563,437	46874,18
563,858	47200,34
564,278	46305,88
564,699	45698,05
565,119	44507,09
565,54	43328,48
565,96	42201,76
566,38	40365,9
566,801	39464,03
567,221	38161,88
567,641	36553,34
568,061	35303,08
568,481	35290,73
568,901	34472,87
569,321	33971,28
569,741	33837,85
570,161	33449,92
570,581	33227,55
571,001	33281,91
571,42	33259,67
571,84	32911,27
572,259	32997,75
572,679	32679,01
573,098	32449,22
573,518	32207,07
573,937	31685,72
574,356	31611,59
574,775	30432,99
575,195	30556,53
575,614	29442,17
576,033	28582,3
576,452	27626,07
576,871	26533,95
577,29	25261,45
577,708	23665,26
578,127	22736,21
578,546	22041,9
578,964	20715,04
579,383	19978,72
579,801	18968,13
580,22	17831,53
580,638	16729,52
581,057	16020,38
581,475	15311,24
581,893	14733,05
582,311	14065,92
582,73	13430,9
583,148	12912,02
583,566	12667,4
583,984	11696,35
584,401	11046,51
584,819	10964,97
585,237	10399,14
585,655	10302,77
586,072	9820,95
586,49	9635,64
586,908	9336,66
587,325	9321,84
587,742	8906,73
588,16	8573,16
588,577	8360,67
588,994	8064,16
589,412	7928,26
589,829	7671,29
590,246	7483,51
590,663	7233,95
591,08	7569,99
591,497	7404,44
591,914	7374,79
592,33	7256,19
592,747	7070,87
593,164	6912,73
593,58	6544,57
593,997	6119,58
594,413	5936,74
594,83	5931,8
595,246	5763,78
595,663	5457,39
596,079	5388,2
596,495	5301,72
596,911	5289,37
597,327	4775,43
597,743	4488,81
598,159	4221,95
598,575	3950,16
598,991	3619,06
599,407	3273,14
599,823	3174,3
600,238	3332,44
600,654	3626,47
601,07	3974,86
601,485	4627,18
601,901	5254,78
602,316	5956,51
602,731	6868,26
603,147	7122,76
603,562	7602,11
603,977	7817,07
604,392	7619,4
604,807	7406,91
605,222	7135,11
605,637	6747,19
606,052	6285,13
606,467	5850,26
606,882	5571,05
607,296	5089,23
607,711	4777,9
608,125	4496,22
608,54	4031,69
608,954	3750,02
609,369	3399,15
609,783	3194,07
610,197	2845,68
610,612	2470,1
611,026	2072,29
611,44	1802,97
611,854	1612,71
612,268	1392,8
612,682	1239,61
613,096	1155,6
613,51	1054,29
613,923	1034,52
614,337	1017,23
614,751	1074,06
615,164	1121
615,578	1135,83
615,991	1234,67
616,405	1274,2
616,818	1239,61
617,231	1281,61
617,645	1343,38
618,058	1422,45
618,471	1560,82
618,884	1642,36
619,297	1921,57
619,71	2124,18
620,123	2257,61
620,536	2583,76
620,948	2749,31
621,361	2843,2
621,774	2875,33
622,186	2699,89
622,599	2536,82
623,011	2344,09
623,424	2074,76
623,836	1926,51
624,248	1760,96
624,661	1659,66
625,073	1597,88
625,485	1763,43
625,897	1891,92
626,309	2121,71
626,721	2262,55
627,133	2435,51
627,545	2457,75
627,956	2363,85
628,368	2208,19
628,78	2163,71
629,191	1943,81
629,603	1906,74
630,014	1681,89
630,426	1721,43
630,837	1763,43
631,248	1748,61
631,66	1926,51
632,071	2057,47
632,482	2314,44
632,893	2556,58
633,304	2825,91
633,715	2746,84
634,126	2961,81
634,536	3159,48
634,947	3028,52
635,358	3003,81
635,769	2890,15
636,179	2736,96
636,59	2529,4
637	2324,32
637,41	2124,18
637,821	1983,34
638,231	1743,67
638,641	1644,83
639,051	1415,04
639,462	1308,79
639,872	1200,07
640,282	1108,65
640,691	901,1
641,101	994,99
641,511	831,91
641,921	866,5
642,331	802,26
642,74	782,5
643,15	710,84
643,559	747,9
643,969	656,48
644,378	678,72
644,787	723,19
645,197	705,9
645,606	730,61
646,015	728,14
646,424	730,61
646,833	708,37
647,242	728,14
647,651	745,43
648,06	765,2
648,469	750,37
648,877	780,02
649,286	700,96
649,694	777,55
650,103	742,96
650,512	700,96
650,92	735,55
651,328	755,32
651,737	730,61
652,145	738,02
652,553	755,32
652,961	846,74
653,369	836,85
653,777	873,92
654,185	987,58
654,593	965,34
655,001	952,99
655,409	943,1
655,816	1004,87
656,224	1037
656,631	972,75
657,039	1019,7
657,446	965,34
657,854	952,99
658,261	982,64
658,668	866,5
659,076	910,98
659,483	809,67
659,89	822,03
660,297	817,09
660,704	710,84
661,111	654,01
661,518	671,31
661,924	639,18
662,331	621,89
662,738	631,77
663,144	579,88
663,551	602,12
663,957	493,4
664,364	567,53
664,77	473,64
665,177	518,11
665,583	562,59
665,989	498,34
666,395	500,82
666,801	483,52
667,207	500,82
667,613	552,7
668,019	520,58
668,425	547,76
668,83	488,46
669,236	577,41
669,642	572,47
670,047	612
670,453	570
670,858	560,12
671,264	574,94
671,669	562,59
672,074	661,42
672,48	641,66
672,885	720,72
673,29	762,73
673,695	700,96
674,1	745,43
674,505	765,2
674,909	755,32
675,314	772,61
675,719	789,91
676,124	742,96
676,528	678,72
676,933	718,25
677,337	683,66
677,742	636,71
678,146	693,54
678,55	666,36
678,955	686,13
679,359	584,83
679,763	599,65
680,167	515,64
680,571	530,47
680,975	520,58
681,379	525,52
681,782	503,29
682,186	535,41
682,59	523,05
682,993	567,53
683,397	530,47
683,8	498,34
684,204	550,23
684,607	597,18
685,011	550,23
685,414	567,53
685,817	589,77
686,22	503,29
686,623	525,52
687,026	547,76
687,429	560,12
687,832	562,59
688,235	532,94
688,638	594,71
689,04	520,58
689,443	498,34
689,845	483,52
690,248	443,99
690,65	500,82
691,053	547,76
691,455	525,52
691,857	488,46
692,26	458,81
692,662	508,23
693,064	446,46
693,466	545,29
693,868	456,34
694,27	456,34
694,671	466,22
695,073	530,47
695,475	490,93
695,877	485,99
696,278	609,53
696,68	594,71
697,081	597,18
697,483	597,18
697,884	579,88
698,285	577,41
698,686	644,13
699,087	649,07
699,489	663,89
699,89	646,6
700,291	614,48
700,691	614,48
701,092	641,66
701,493	658,95
701,894	570
702,294	599,65
702,695	579,88
703,096	592,24
703,496	542,82
703,896	567,53
704,297	577,41
704,697	513,17
705,097	542,82
705,497	567,53
705,897	639,18
706,297	624,36
706,697	567,53
707,097	513,17
707,497	550,23
707,897	572,47
708,297	609,53
708,696	570
709,096	547,76
709,495	542,82
709,895	508,23
710,294	557,65
710,694	577,41
711,093	550,23
711,492	582,35
711,891	520,58
712,29	550,23
712,689	584,83
713,088	616,95
713,487	493,4
713,886	468,69
714,285	562,59
714,684	589,77
715,082	505,76
715,481	523,05
715,879	490,93
716,278	547,76
716,676	508,23
717,075	560,12
717,473	483,52
717,871	498,34
718,269	530,47
718,667	515,64
719,065	453,87
719,463	439,04
719,861	456,34
