Data from FLMS187131_15-31-26-004.txt Node
Date: Mon Dec 23 15:31:26 MSK 2024
User: FemtoLab1
Spectrometer: FLMS18713
Trigger mode: 0
Integration Time (sec): 3,001000E-2
Scans to average: 1
Electric dark correction enabled: true
Nonlinearity correction enabled: false
Boxcar width: 0
XAxis mode: Wavelengths
Number of Pixels in Spectrum: 2048
>>>>>Begin Spectral Data<<<<<
190,252	5,1
190,715	5,1
191,177	5,1
191,64	-101,15
192,102	-143,16
192,565	-71,5
193,027	-128,33
193,49	-64,09
193,952	-93,74
194,415	-66,56
194,877	-39,38
195,339	24,86
195,802	-7,26
196,264	-66,56
196,726	47,1
197,188	34,75
197,65	-7,26
198,112	47,1
198,574	121,23
199,036	98,99
199,498	170,64
199,96	155,82
200,421	128,64
200,883	140,99
201,345	296,66
201,807	309,01
202,268	351,02
202,73	296,66
203,191	343,61
203,653	336,19
204,114	249,71
204,576	348,55
205,037	370,79
205,498	316,43
205,96	454,8
206,421	397,97
206,882	407,85
207,343	422,67
207,804	415,26
208,265	425,14
208,726	412,79
209,187	378,2
209,648	459,74
210,109	459,74
210,57	415,26
211,031	454,8
211,492	501,74
211,952	417,73
212,413	393,02
212,874	464,68
213,334	380,67
213,795	439,97
214,255	417,73
214,716	469,62
215,176	410,32
215,636	348,55
216,097	407,85
216,557	373,26
217,017	467,15
217,477	393,02
217,938	378,2
218,398	338,66
218,858	454,8
219,318	417,73
219,778	420,2
220,238	437,5
220,698	348,55
221,157	400,44
221,617	397,97
222,077	378,2
222,537	432,56
222,996	432,56
223,456	393,02
223,915	407,85
224,375	309,01
224,834	405,38
225,294	405,38
225,753	375,73
226,213	373,26
226,672	348,55
227,131	435,03
227,59	420,2
228,05	390,55
228,509	385,61
228,968	373,26
229,427	355,96
229,886	383,14
230,345	437,5
230,804	395,49
231,263	385,61
231,721	336,19
232,18	346,08
232,639	368,31
233,098	420,2
233,556	380,67
234,015	410,32
234,473	360,9
234,932	363,37
235,39	338,66
235,849	378,2
236,307	442,44
236,765	378,2
237,224	375,73
237,682	378,2
238,14	383,14
238,598	395,49
239,056	348,55
239,514	430,09
239,972	373,26
240,43	341,14
240,888	395,49
241,346	402,91
241,804	486,92
242,262	454,8
242,72	358,43
243,177	370,79
243,635	459,74
244,093	442,44
244,55	405,38
245,008	397,97
245,465	442,44
245,923	393,02
246,38	444,91
246,837	375,73
247,295	457,27
247,752	449,85
248,209	430,09
248,666	405,38
249,123	395,49
249,58	407,85
250,037	333,72
250,494	383,14
250,951	420,2
251,408	365,84
251,865	393,02
252,322	435,03
252,779	380,67
253,235	442,44
253,692	341,14
254,149	420,2
254,605	410,32
255,062	422,67
255,518	454,8
255,975	452,32
256,431	457,27
256,887	373,26
257,344	380,67
257,8	449,85
258,256	390,55
258,712	388,08
259,168	439,97
259,625	412,79
260,081	452,32
260,537	422,67
260,992	472,09
261,448	462,21
261,904	425,14
262,36	400,44
262,816	430,09
263,272	425,14
263,727	410,32
264,183	444,91
264,638	407,85
265,094	368,31
265,549	439,97
266,005	318,9
266,46	410,32
266,916	402,91
267,371	467,15
267,826	462,21
268,281	407,85
268,737	432,56
269,192	464,68
269,647	467,15
270,102	390,55
270,557	427,62
271,012	415,26
271,467	484,45
271,921	462,21
272,376	467,15
272,831	457,27
273,286	365,84
273,74	474,56
274,195	380,67
274,649	447,38
275,104	452,32
275,558	430,09
276,013	415,26
276,467	452,32
276,922	397,97
277,376	474,56
277,83	457,27
278,284	449,85
278,739	489,39
279,193	462,21
279,647	553,63
280,101	457,27
280,555	417,73
281,009	437,5
281,462	420,2
281,916	459,74
282,37	447,38
282,824	368,31
283,278	412,79
283,731	407,85
284,185	383,14
284,638	407,85
285,092	462,21
285,545	444,91
285,999	407,85
286,452	464,68
286,905	432,56
287,359	474,56
287,812	410,32
288,265	442,44
288,718	390,55
289,171	469,62
289,624	459,74
290,077	491,86
290,53	420,2
290,983	407,85
291,436	383,14
291,889	422,67
292,342	405,38
292,794	452,32
293,247	477,03
293,7	523,98
294,152	400,44
294,605	509,15
295,057	390,55
295,51	402,91
295,962	444,91
296,414	442,44
296,867	452,32
297,319	427,62
297,771	469,62
298,223	405,38
298,675	380,67
299,128	405,38
299,58	397,97
300,032	427,62
300,483	405,38
300,935	452,32
301,387	415,26
301,839	407,85
302,291	427,62
302,742	425,14
303,194	459,74
303,646	425,14
304,097	397,97
304,549	393,02
305	469,62
305,451	417,73
305,903	430,09
306,354	388,08
306,805	405,38
307,257	467,15
307,708	467,15
308,159	521,51
308,61	422,67
309,061	439,97
309,512	407,85
309,963	422,67
310,414	425,14
310,865	439,97
311,315	427,62
311,766	467,15
312,217	479,5
312,668	504,21
313,118	422,67
313,569	397,97
314,019	417,73
314,47	486,92
314,92	479,5
315,37	425,14
315,821	388,08
316,271	472,09
316,721	477,03
317,171	452,32
317,622	385,61
318,072	383,14
318,522	380,67
318,972	402,91
319,422	400,44
319,872	375,73
320,321	430,09
320,771	521,51
321,221	459,74
321,671	417,73
322,12	425,14
322,57	437,5
323,019	370,79
323,469	412,79
323,918	447,38
324,368	469,62
324,817	472,09
325,267	496,8
325,716	464,68
326,165	467,15
326,614	457,27
327,063	469,62
327,512	363,37
327,961	469,62
328,41	437,5
328,859	432,56
329,308	397,97
329,757	459,74
330,206	397,97
330,655	457,27
331,103	469,62
331,552	452,32
332,001	462,21
332,449	373,26
332,898	491,86
333,346	422,67
333,794	454,8
334,243	464,68
334,691	444,91
335,139	415,26
335,588	439,97
336,036	449,85
336,484	504,21
336,932	400,44
337,38	430,09
337,828	472,09
338,276	462,21
338,724	435,03
339,172	501,74
339,619	422,67
340,067	519,04
340,515	444,91
340,962	425,14
341,41	449,85
341,858	459,74
342,305	407,85
342,753	425,14
343,2	385,61
343,647	402,91
344,095	462,21
344,542	462,21
344,989	464,68
345,436	499,27
345,883	449,85
346,33	454,8
346,777	415,26
347,224	435,03
347,671	393,02
348,118	457,27
348,565	459,74
349,012	454,8
349,458	395,49
349,905	420,2
350,352	462,21
350,798	412,79
351,245	474,56
351,691	420,2
352,138	457,27
352,584	420,2
353,03	509,15
353,477	420,2
353,923	511,63
354,369	521,51
354,815	452,32
355,261	388,08
355,707	417,73
356,153	444,91
356,599	449,85
357,045	430,09
357,491	452,32
357,937	417,73
358,382	459,74
358,828	472,09
359,274	437,5
359,719	346,08
360,165	442,44
360,61	412,79
361,056	390,55
361,501	427,62
361,947	420,2
362,392	459,74
362,837	375,73
363,282	402,91
363,727	457,27
364,173	467,15
364,618	477,03
365,063	479,5
365,508	509,15
365,952	472,09
366,397	422,67
366,842	481,97
367,287	442,44
367,732	452,32
368,176	425,14
368,621	464,68
369,065	425,14
369,51	449,85
369,954	464,68
370,399	439,97
370,843	479,5
371,287	420,2
371,732	447,38
372,176	435,03
372,62	427,62
373,064	486,92
373,508	442,44
373,952	486,92
374,396	400,44
374,84	462,21
375,284	393,02
375,728	459,74
376,172	457,27
376,615	486,92
377,059	454,8
377,503	454,8
377,946	452,32
378,39	442,44
378,833	501,74
379,277	449,85
379,72	444,91
380,163	449,85
380,607	405,38
381,05	439,97
381,493	422,67
381,936	469,62
382,379	442,44
382,822	474,56
383,265	442,44
383,708	435,03
384,151	363,37
384,594	454,8
385,037	430,09
385,479	464,68
385,922	509,15
386,365	439,97
386,807	449,85
387,25	417,73
387,692	439,97
388,135	412,79
388,577	393,02
389,019	437,5
389,461	363,37
389,904	447,38
390,346	400,44
390,788	479,5
391,23	437,5
391,672	420,2
392,114	427,62
392,556	383,14
392,998	457,27
393,44	452,32
393,881	432,56
394,323	472,09
394,765	489,39
395,206	442,44
395,648	380,67
396,09	484,45
396,531	479,5
396,972	452,32
397,414	425,14
397,855	486,92
398,296	439,97
398,738	422,67
399,179	464,68
399,62	439,97
400,061	462,21
400,502	467,15
400,943	425,14
401,384	474,56
401,825	412,79
402,265	400,44
402,706	462,21
403,147	469,62
403,588	425,14
404,028	410,32
404,469	447,38
404,909	474,56
405,35	477,03
405,79	420,2
406,23	457,27
406,671	447,38
407,111	474,56
407,551	452,32
407,991	467,15
408,431	452,32
408,871	467,15
409,311	494,33
409,751	474,56
410,191	447,38
410,631	400,44
411,071	472,09
411,511	499,27
411,95	439,97
412,39	432,56
412,83	447,38
413,269	400,44
413,709	447,38
414,148	422,67
414,587	484,45
415,027	501,74
415,466	452,32
415,905	427,62
416,345	415,26
416,784	439,97
417,223	479,5
417,662	454,8
418,101	422,67
418,54	410,32
418,979	397,97
419,417	452,32
419,856	464,68
420,295	439,97
420,734	462,21
421,172	442,44
421,611	415,26
422,049	435,03
422,488	491,86
422,926	444,91
423,364	420,2
423,803	489,39
424,241	430,09
424,679	420,2
425,117	385,61
425,555	427,62
425,994	462,21
426,432	417,73
426,87	412,79
427,307	454,8
427,745	506,68
428,183	405,38
428,621	457,27
429,058	484,45
429,496	380,67
429,934	501,74
430,371	494,33
430,809	432,56
431,246	489,39
431,684	422,67
432,121	405,38
432,558	444,91
432,995	489,39
433,433	457,27
433,87	519,04
434,307	504,21
434,744	430,09
435,181	373,26
435,618	447,38
436,055	506,68
436,491	469,62
436,928	462,21
437,365	484,45
437,801	412,79
438,238	477,03
438,675	467,15
439,111	528,92
439,548	548,69
439,984	523,98
440,42	477,03
440,857	486,92
441,293	402,91
441,729	432,56
442,165	459,74
442,601	457,27
443,037	457,27
443,473	479,5
443,909	439,97
444,345	393,02
444,781	447,38
445,217	486,92
445,652	501,74
446,088	467,15
446,524	528,92
446,959	486,92
447,395	457,27
447,83	439,97
448,266	496,8
448,701	516,57
449,136	462,21
449,572	486,92
450,007	501,74
450,442	511,63
450,877	511,63
451,312	489,39
451,747	521,51
452,182	499,27
452,617	509,15
453,052	494,33
453,486	531,39
453,921	469,62
454,356	501,74
454,79	511,63
455,225	563,51
455,66	504,21
456,094	491,86
456,528	548,69
456,963	494,33
457,397	444,91
457,831	514,1
458,265	484,45
458,7	516,57
459,134	504,21
459,568	548,69
460,002	435,03
460,436	538,81
460,87	477,03
461,303	425,14
461,737	447,38
462,171	504,21
462,605	511,63
463,038	565,98
463,472	395,49
463,905	511,63
464,339	474,56
464,772	489,39
465,205	541,28
465,639	494,33
466,072	548,69
466,505	474,56
466,938	541,28
467,371	528,92
467,804	484,45
468,237	486,92
468,67	484,45
469,103	509,15
469,536	496,8
469,969	538,81
470,402	541,28
470,834	533,86
471,267	570,93
471,699	516,57
472,132	472,09
472,564	543,75
472,997	573,4
473,429	523,98
473,861	556,1
474,294	528,92
474,726	514,1
475,158	514,1
475,59	514,1
476,022	501,74
476,454	501,74
476,886	593,16
477,318	583,28
477,75	578,34
478,181	558,57
478,613	598,11
479,045	583,28
479,476	588,22
479,908	516,57
480,339	615,4
480,771	654,94
481,202	687,06
481,634	709,3
482,065	709,3
482,496	783,42
482,927	798,25
483,358	803,19
483,789	904,49
484,22	1067,57
484,651	1188,64
485,082	1309,72
485,513	1450,56
485,944	1707,53
486,375	1947,2
486,805	2369,72
487,236	2760,12
487,667	3197,47
488,097	3899,19
488,527	4423,02
488,958	5238,41
489,388	6036,5
489,819	7187,93
490,249	8102,15
490,679	9258,52
491,109	10728,69
491,539	11805,99
491,969	13340,4
492,399	14637,61
492,829	16194,26
493,259	17817,63
493,689	18805,98
494,119	20310,74
494,548	21417,69
494,978	22690,19
495,408	24160,36
495,837	25277,2
496,267	26972,22
496,696	28370,73
497,126	29635,82
497,555	31066,46
497,984	31842,31
498,413	32660,17
498,843	34416,96
499,272	35815,48
499,701	37149,75
500,13	38763,23
500,559	40737,46
500,988	41829,59
501,417	42943,95
501,845	44658,74
502,274	45563,08
502,703	47065,37
503,131	47141,97
503,56	47604,02
503,988	48387,29
504,417	49279,27
504,845	49788,27
505,274	49966,18
505,702	50759,33
506,13	51147,25
506,558	51987,35
506,987	52572,95
507,415	52899,1
507,843	53035
508,271	53054,77
508,699	53371,04
509,126	53857,8
509,554	53492,11
509,982	53351,27
510,41	53603,3
510,837	53578,59
511,265	53274,68
511,693	53393,28
512,12	52807,68
512,547	53383,39
512,975	53346,33
513,402	52597,66
513,829	53447,64
514,257	53410,57
514,684	53106,66
515,111	53971,46
515,538	53712,02
515,965	53010,29
516,392	52605,07
516,819	52493,88
517,246	52333,27
517,672	52029,36
518,099	51564,83
518,526	50774,15
518,952	50586,36
519,379	50564,13
519,805	50334,34
520,232	50131,72
520,658	50270,09
521,085	50413,4
521,511	50445,52
521,937	51255,97
522,363	51727,91
522,789	52577,89
523,215	53178,31
523,641	54581,77
524,067	55382,33
524,493	55209,37
524,919	53553,88
525,345	51500,59
525,771	48263,74
526,196	44068,2
526,622	39351,3
527,047	34985,26
527,473	30639
527,898	28289,19
528,324	26191,42
528,749	26065,41
529,174	27263,78
529,6	29413,44
530,025	33191,41
530,45	37419,08
530,875	41404,6
531,3	45763,22
531,725	49279,27
532,15	51895,93
532,575	53731,79
532,999	54233,38
533,424	53729,32
533,849	52506,23
534,273	50445,52
534,698	47779,45
535,122	44883,59
535,547	42669,68
535,971	39793,59
536,396	36870,54
536,82	34629,46
537,244	32830,66
537,668	30755,13
538,092	28556,05
538,517	26772,08
538,941	24847,27
539,364	23058,35
539,788	22104,6
540,212	20837,04
540,636	20271,21
541,06	19638,66
541,483	19109,9
541,907	19310,04
542,331	19216,14
542,754	19623,84
543,178	20083,42
543,601	20629,48
544,024	21486,88
544,448	22146,6
544,871	23070,71
545,294	23611,83
545,717	24607,59
546,14	25198,13
546,563	25801,02
546,986	26727,6
547,409	27224,25
547,832	27189,66
548,255	27918,56
548,677	27607,23
549,1	28150,83
549,522	28496,75
549,945	28573,35
550,368	28123,65
550,79	28215,07
551,212	28580,76
551,635	28061,87
552,057	28355,91
552,479	27612,18
552,901	27772,78
553,323	27639,35
553,745	27493,57
554,167	27683,83
554,589	27061,17
555,011	27120,47
555,433	26574,41
555,855	26285,32
556,277	26423,68
556,698	25736,78
557,12	25534,17
557,541	24911,51
557,963	24923,86
558,384	24602,65
558,806	23824,32
559,227	23782,32
559,648	23026,23
560,069	22361,57
560,49	21948,93
560,912	21593,13
561,333	21514,06
561,754	20765,38
562,174	20372,51
562,595	19940,11
563,016	20034
563,437	19628,78
563,858	19386,63
564,278	18855,4
564,699	19033,3
565,119	18912,23
565,54	18872,69
565,96	18578,66
566,38	18334,04
566,801	18353,81
567,221	18430,41
567,641	18321,69
568,061	17998
568,481	17983,18
568,901	18190,73
569,321	18146,26
569,741	18131,43
570,161	18225,32
570,581	17852,22
571,001	18094,37
571,42	17913,99
571,84	18030,12
572,259	17988,12
572,679	17960,94
573,098	17928,82
573,518	18104,25
573,937	17995,53
574,356	18324,16
574,775	18128,96
575,195	18037,54
575,614	17834,93
576,033	17884,34
576,452	17701,5
576,871	17708,91
577,29	17464,29
577,708	17051,66
578,127	16834,22
578,546	16930,59
578,964	16732,92
579,383	16451,24
579,801	16132,49
580,22	15875,52
580,638	15729,74
581,057	15566,66
581,475	15267,69
581,893	15149,08
582,311	14906,94
582,73	14862,46
583,148	14820,46
583,566	14756,22
583,984	14197,8
584,401	14210,15
584,819	14108,85
585,237	14121,2
585,655	13817,28
586,072	13770,34
586,49	13822,23
586,908	13691,27
587,325	13328,05
587,742	13441,71
588,16	13137,79
588,577	13281,1
588,994	13276,16
589,412	12880,82
589,829	12720,22
590,246	12515,13
590,663	12636,21
591,08	12445,95
591,497	12139,56
591,914	12314,99
592,33	12070,38
592,747	12188,98
593,164	11991,31
593,58	12001,19
593,997	11964,13
594,413	11932,01
594,83	11818,35
595,246	11897,41
595,663	12109,91
596,079	11981,42
596,495	11660,21
596,911	11924,59
597,327	11672,56
597,743	11556,43
598,159	11615,73
598,575	11544,08
598,991	11511,96
599,407	11613,26
599,823	11749,16
600,238	11348,88
600,654	11761,52
601,07	11855,41
601,485	11810,93
601,901	11830,7
602,316	11754,1
602,731	11395,83
603,147	11096,85
603,562	11287,11
603,977	10936,24
604,392	10805,29
604,807	10664,45
605,222	10985,66
605,637	10694,1
606,052	10385,24
606,467	10370,41
606,882	9928,13
607,296	9960,25
607,711	10031,9
608,125	9809,53
608,54	9856,47
608,954	10088,73
609,369	9967,66
609,783	9982,49
610,197	9836,71
610,612	10073,91
611,026	9774,93
611,44	9624,21
611,854	9606,91
612,268	9218,99
612,682	9125,09
613,096	8949,66
613,51	8999,08
613,923	8766,82
614,337	8579,03
614,751	8650,69
615,164	8675,39
615,578	8606,21
615,991	8435,72
616,405	8371,48
616,818	8047,79
617,231	8233,11
617,645	8119,45
618,058	8042,85
618,471	7788,35
618,884	7523,97
619,297	7654,92
619,71	7627,74
620,123	7501,73
620,536	7269,47
620,948	7296,65
621,361	7123,69
621,774	7180,52
622,186	6923,54
622,599	6802,47
623,011	6871,66
623,424	6785,18
623,836	6669,04
624,248	6481,26
624,661	6431,84
625,073	6372,54
625,485	6194,64
625,897	6162,52
626,309	5964,85
626,721	6073,56
627,133	5826,48
627,545	5801,77
627,956	5868,48
628,368	5715,29
628,78	5641,16
629,191	5458,32
629,603	5485,5
630,014	5401,49
630,426	5334,77
630,837	5258,18
631,248	5295,24
631,66	5193,93
632,071	5127,22
632,482	5011,09
632,893	4887,54
633,304	5016,03
633,715	4776,35
634,126	4922,14
634,536	4902,37
634,947	4707,17
635,358	4944,37
635,769	4904,84
636,179	4783,77
636,59	4788,71
637	4796,12
637,41	4731,88
637,821	4662,69
638,231	4650,34
638,641	4815,89
639,051	4736,82
639,462	4719,52
639,872	4734,35
640,282	4726,94
640,691	4509,5
641,101	4524,33
641,511	4672,58
641,921	4645,4
642,331	4647,87
642,74	4667,64
643,15	4551,5
643,559	4551,5
643,969	4507,03
644,378	4509,5
644,787	4450,2
645,197	4460,08
645,606	4376,07
646,015	4279,71
646,424	4346,42
646,833	4469,97
647,242	4316,77
647,651	4284,65
648,06	4294,53
648,469	4269,83
648,877	4183,34
649,286	4072,16
649,694	4079,57
650,103	4020,27
650,512	3879,43
650,92	3916,49
651,328	3968,38
651,737	3968,38
652,145	3899,19
652,553	3980,73
652,961	3867,07
653,369	3990,62
653,777	3881,9
654,185	3956,02
654,593	3909,08
655,001	3876,96
655,409	3830,01
655,816	3810,24
656,224	3624,93
656,631	3600,22
657,039	3664,46
657,446	3476,67
657,854	3318,54
658,261	3296,3
658,668	3101,1
659,076	3266,65
659,483	3088,75
659,89	3059,1
660,297	2957,79
660,704	2984,97
661,111	2893,55
661,518	2819,42
661,924	2745,3
662,331	2700,82
662,738	2609,4
663,144	2569,86
663,551	2621,75
663,957	2495,74
664,364	2429,02
664,77	2441,38
665,177	2367,25
665,583	2280,77
665,989	2315,36
666,395	2204,17
666,801	2169,58
667,207	2167,11
667,613	2115,22
668,019	2127,58
668,425	2223,94
668,83	2147,34
669,236	2073,22
669,642	1942,26
670,047	2008,98
670,453	2065,81
670,858	1974,38
671,264	2011,45
671,669	1999,09
672,074	1994,15
672,48	1907,67
672,885	2060,86
673,29	1934,85
673,695	1999,09
674,1	1868,14
674,505	1996,62
674,909	1821,19
675,314	1922,49
675,719	1939,79
676,124	1848,37
676,528	1808,83
676,933	1836,01
677,337	1781,65
677,742	1761,89
678,146	1754,48
678,55	1635,87
678,955	1769,3
679,359	1756,95
679,763	1663,05
680,167	1648,23
680,571	1633,4
680,975	1710
681,379	1606,22
681,782	1776,71
682,186	1650,7
682,59	1722,35
682,993	1675,41
683,397	1747,06
683,8	1838,48
684,204	1784,13
684,607	1623,52
685,011	1840,96
685,414	1803,89
685,817	1794,01
686,22	1752
686,623	1702,59
687,026	1732,24
687,429	1756,95
687,832	1722,35
688,235	1663,05
688,638	1707,53
689,04	1569,16
689,443	1665,52
689,845	1613,64
690,248	1593,87
690,65	1705,06
691,053	1541,98
691,455	1579,04
691,857	1593,87
692,26	1579,04
692,662	1574,1
693,064	1532,1
693,466	1576,57
693,868	1485,15
694,27	1532,1
694,671	1490,09
695,073	1472,8
695,475	1391,26
695,877	1430,79
696,278	1388,79
696,68	1383,84
697,081	1413,49
697,483	1383,84
697,884	1299,83
698,285	1361,61
698,686	1319,6
699,087	1457,97
699,489	1354,19
699,89	1277,6
700,291	1309,72
700,691	1252,89
701,092	1302,31
701,493	1329,48
701,894	1277,6
702,294	1238,06
702,695	1294,89
703,096	1314,66
703,496	1386,31
703,896	1356,66
704,297	1322,07
704,697	1304,78
705,097	1270,18
705,497	1282,54
705,897	1243
706,297	1289,95
706,697	1141,7
707,097	1163,94
