Data from FLMS187131_15-36-06-102.txt Node
Date: Mon Dec 23 15:36:06 MSK 2024
User: FemtoLab1
Spectrometer: FLMS18713
Trigger mode: 0
Integration Time (sec): 1,480000E-1
Scans to average: 1
Electric dark correction enabled: true
Nonlinearity correction enabled: false
Boxcar width: 0
XAxis mode: Wavelengths
Number of Pixels in Spectrum: 2048
>>>>>Begin Spectral Data<<<<<
190,252	-25,94
190,715	-25,94
191,177	-25,94
191,64	-122,31
192,102	-107,48
192,565	-107,48
193,027	-85,25
193,49	-92,66
193,952	-105,01
194,415	-97,6
194,877	-18,53
195,339	-23,47
195,802	-25,94
196,264	1,24
196,726	11,12
197,188	60,54
197,65	38,3
198,112	90,19
198,574	100,07
199,036	124,78
199,498	129,72
199,96	176,67
200,421	193,96
200,883	179,14
201,345	354,57
201,807	258,21
202,268	329,86
202,73	265,62
203,191	366,92
203,653	408,93
204,114	352,1
204,576	371,87
205,037	488
205,498	426,23
205,96	421,28
206,421	394,1
206,882	369,4
207,343	371,87
207,804	475,64
208,265	512,71
208,726	463,29
209,187	470,7
209,648	413,87
210,109	416,34
210,57	384,22
211,031	413,87
211,492	453,41
211,952	399,05
212,413	450,93
212,874	443,52
213,334	423,75
213,795	384,22
214,255	490,47
214,716	468,23
215,176	463,29
215,636	428,7
216,097	423,75
216,557	438,58
217,017	401,52
217,477	413,87
217,938	445,99
218,398	438,58
218,858	401,52
219,318	349,63
219,778	374,34
220,238	445,99
220,698	460,82
221,157	433,64
221,617	475,64
222,077	428,7
222,537	391,63
222,996	394,1
223,456	399,05
223,915	450,93
224,375	421,28
224,834	359,51
225,294	354,57
225,753	386,69
226,213	438,58
226,672	478,11
227,131	386,69
227,59	423,75
228,05	431,17
228,509	396,58
228,968	450,93
229,427	401,52
229,886	448,46
230,345	458,35
230,804	475,64
231,263	403,99
231,721	423,75
232,18	455,88
232,639	361,98
233,098	426,23
233,556	433,64
234,015	423,75
234,473	441,05
234,932	394,1
235,39	441,05
235,849	408,93
236,307	384,22
236,765	448,46
237,224	453,41
237,682	428,7
238,14	376,81
238,598	552,24
239,056	401,52
239,514	413,87
239,972	421,28
240,43	475,64
240,888	418,81
241,346	438,58
241,804	478,11
242,262	423,75
242,72	460,82
243,177	426,23
243,635	475,64
244,093	401,52
244,55	448,46
245,008	433,64
245,465	470,7
245,923	386,69
246,38	463,29
246,837	485,53
247,295	408,93
247,752	389,16
248,209	401,52
248,666	463,29
249,123	396,58
249,58	416,34
250,037	460,82
250,494	418,81
250,951	379,28
251,408	426,23
251,865	460,82
252,322	458,35
252,779	445,99
253,235	441,05
253,692	505,29
254,149	423,75
254,605	460,82
255,062	366,92
255,518	453,41
255,975	431,17
256,431	453,41
256,887	448,46
257,344	381,75
257,8	438,58
258,256	428,7
258,712	488
259,168	421,28
259,625	468,23
260,081	411,4
260,537	450,93
260,992	500,35
261,448	507,76
261,904	436,11
262,36	473,17
262,816	512,71
263,272	453,41
263,727	441,05
264,183	445,99
264,638	423,75
265,094	394,1
265,549	443,52
266,005	403,99
266,46	495,41
266,916	497,88
267,371	502,82
267,826	468,23
268,281	473,17
268,737	475,64
269,192	505,29
269,647	512,71
270,102	455,88
270,557	443,52
271,012	396,58
271,467	406,46
271,921	389,16
272,376	460,82
272,831	458,35
273,286	465,76
273,74	401,52
274,195	386,69
274,649	463,29
275,104	470,7
275,558	445,99
276,013	492,94
276,467	366,92
276,922	438,58
277,376	394,1
277,83	441,05
278,284	428,7
278,739	436,11
279,193	391,63
279,647	433,64
280,101	492,94
280,555	455,88
281,009	465,76
281,462	443,52
281,916	399,05
282,37	418,81
282,824	431,17
283,278	470,7
283,731	423,75
284,185	371,87
284,638	436,11
285,092	463,29
285,545	413,87
285,999	443,52
286,452	438,58
286,905	450,93
287,359	522,59
287,812	458,35
288,265	483,06
288,718	515,18
289,171	423,75
289,624	468,23
290,077	475,64
290,53	478,11
290,983	505,29
291,436	473,17
291,889	421,28
292,342	371,87
292,794	470,7
293,247	465,76
293,7	468,23
294,152	453,41
294,605	428,7
295,057	443,52
295,51	441,05
295,962	525,06
296,414	438,58
296,867	441,05
297,319	473,17
297,771	463,29
298,223	470,7
298,675	455,88
299,128	438,58
299,58	468,23
300,032	473,17
300,483	507,76
300,935	470,7
301,387	445,99
301,839	445,99
302,291	448,46
302,742	421,28
303,194	448,46
303,646	436,11
304,097	470,7
304,549	460,82
305	438,58
305,451	490,47
305,903	401,52
306,354	379,28
306,805	463,29
307,257	436,11
307,708	408,93
308,159	433,64
308,61	485,53
309,061	497,88
309,512	505,29
309,963	436,11
310,414	463,29
310,865	426,23
311,315	436,11
311,766	450,93
312,217	416,34
312,668	448,46
313,118	530
313,569	441,05
314,019	413,87
314,47	455,88
314,92	441,05
315,37	463,29
315,821	512,71
316,271	453,41
316,721	450,93
317,171	448,46
317,622	403,99
318,072	453,41
318,522	403,99
318,972	394,1
319,422	426,23
319,872	463,29
320,321	438,58
320,771	473,17
321,221	403,99
321,671	460,82
322,12	473,17
322,57	500,35
323,019	433,64
323,469	428,7
323,918	507,76
324,368	497,88
324,817	364,45
325,267	453,41
325,716	495,41
326,165	421,28
326,614	411,4
327,063	468,23
327,512	463,29
327,961	381,75
328,41	428,7
328,859	413,87
329,308	475,64
329,757	423,75
330,206	418,81
330,655	485,53
331,103	502,82
331,552	445,99
332,001	433,64
332,449	450,93
332,898	441,05
333,346	448,46
333,794	455,88
334,243	567,07
334,691	428,7
335,139	408,93
335,588	431,17
336,036	421,28
336,484	460,82
336,932	490,47
337,38	470,7
337,828	522,59
338,276	384,22
338,724	413,87
339,172	478,11
339,619	488
340,067	428,7
340,515	413,87
340,962	473,17
341,41	510,24
341,858	436,11
342,305	450,93
342,753	468,23
343,2	428,7
343,647	478,11
344,095	515,18
344,542	512,71
344,989	450,93
345,436	406,46
345,883	445,99
346,33	465,76
346,777	502,82
347,224	443,52
347,671	500,35
348,118	480,59
348,565	520,12
349,012	428,7
349,458	507,76
349,905	438,58
350,352	497,88
350,798	527,53
351,245	465,76
351,691	465,76
352,138	450,93
352,584	465,76
353,03	480,59
353,477	426,23
353,923	520,12
354,369	408,93
354,815	455,88
355,261	532,47
355,707	426,23
356,153	418,81
356,599	406,46
357,045	465,76
357,491	448,46
357,937	470,7
358,382	441,05
358,828	386,69
359,274	426,23
359,719	525,06
360,165	433,64
360,61	473,17
361,056	490,47
361,501	480,59
361,947	445,99
362,392	542,36
362,837	418,81
363,282	428,7
363,727	547,3
364,173	455,88
364,618	443,52
365,063	500,35
365,508	490,47
365,952	460,82
366,397	475,64
366,842	433,64
367,287	483,06
367,732	448,46
368,176	497,88
368,621	441,05
369,065	418,81
369,51	458,35
369,954	465,76
370,399	426,23
370,843	488
371,287	371,87
371,732	455,88
372,176	480,59
372,62	485,53
373,064	450,93
373,508	458,35
373,952	470,7
374,396	428,7
374,84	455,88
375,284	488
375,728	401,52
376,172	389,16
376,615	441,05
377,059	421,28
377,503	460,82
377,946	488
378,39	411,4
378,833	423,75
379,277	473,17
379,72	478,11
380,163	460,82
380,607	502,82
381,05	488
381,493	463,29
381,936	465,76
382,379	458,35
382,822	458,35
383,265	505,29
383,708	507,76
384,151	455,88
384,594	470,7
385,037	426,23
385,479	445,99
385,922	352,1
386,365	475,64
386,807	443,52
387,25	465,76
387,692	455,88
388,135	453,41
388,577	500,35
389,019	448,46
389,461	485,53
389,904	401,52
390,346	403,99
390,788	453,41
391,23	480,59
391,672	465,76
392,114	453,41
392,556	458,35
392,998	473,17
393,44	463,29
393,881	450,93
394,323	418,81
394,765	490,47
395,206	453,41
395,648	473,17
396,09	384,22
396,531	485,53
396,972	428,7
397,414	433,64
397,855	453,41
398,296	408,93
398,738	470,7
399,179	485,53
399,62	502,82
400,061	478,11
400,502	445,99
400,943	433,64
401,384	426,23
401,825	483,06
402,265	445,99
402,706	475,64
403,147	403,99
403,588	436,11
404,028	517,65
404,469	431,17
404,909	411,4
405,35	458,35
405,79	500,35
406,23	436,11
406,671	458,35
407,111	483,06
407,551	475,64
407,991	423,75
408,431	460,82
408,871	455,88
409,311	488
409,751	455,88
410,191	492,94
410,631	483,06
411,071	549,77
411,511	445,99
411,95	534,94
412,39	453,41
412,83	423,75
413,269	463,29
413,709	480,59
414,148	441,05
414,587	448,46
415,027	423,75
415,466	512,71
415,905	448,46
416,345	463,29
416,784	460,82
417,223	443,52
417,662	468,23
418,101	470,7
418,54	463,29
418,979	448,46
419,417	458,35
419,856	465,76
420,295	408,93
420,734	478,11
421,172	445,99
421,611	505,29
422,049	421,28
422,488	485,53
422,926	515,18
423,364	411,4
423,803	500,35
424,241	478,11
424,679	569,54
425,117	539,89
425,555	423,75
425,994	453,41
426,432	450,93
426,87	478,11
427,307	507,76
427,745	542,36
428,183	483,06
428,621	562,12
429,058	475,64
429,496	505,29
429,934	512,71
430,371	542,36
430,809	552,24
431,246	510,24
431,684	515,18
432,121	532,47
432,558	483,06
432,995	542,36
433,433	507,76
433,87	539,89
434,307	473,17
434,744	522,59
435,181	586,83
435,618	500,35
436,055	651,08
436,491	695,55
436,928	646,13
437,365	549,77
437,801	576,95
438,238	567,07
438,675	614,01
439,111	643,66
439,548	601,66
439,984	594,25
440,42	554,71
440,857	668,37
441,293	683,2
441,729	651,08
442,165	658,49
442,601	633,78
443,037	656,02
443,473	589,3
443,909	621,42
444,345	616,48
444,781	663,43
445,217	678,26
445,652	660,96
446,088	740,03
446,524	673,31
446,959	727,67
447,395	710,38
447,83	670,84
448,266	735,09
448,701	648,6
449,136	665,9
449,572	572,01
450,007	660,96
450,442	658,49
450,877	700,49
451,312	742,5
451,747	730,14
452,182	700,49
452,617	725,2
453,052	759,79
453,486	623,9
453,921	700,49
454,356	675,78
454,79	648,6
455,225	705,43
455,66	643,66
456,094	606,6
456,528	648,6
456,963	641,19
457,397	574,48
457,831	663,43
458,265	688,14
458,7	576,95
459,134	626,37
459,568	549,77
460,002	584,36
460,436	581,89
460,87	633,78
461,303	549,77
461,737	591,77
462,171	559,65
462,605	631,31
463,038	554,71
463,472	626,37
463,905	586,83
464,339	665,9
464,772	606,6
465,205	589,3
465,639	525,06
466,072	564,59
466,505	604,13
466,938	579,42
467,371	547,3
467,804	579,42
468,237	628,84
468,67	549,77
469,103	512,71
469,536	530
469,969	586,83
470,402	557,18
470,834	646,13
471,267	611,54
471,699	606,6
472,132	609,07
472,564	525,06
472,997	495,41
473,429	557,18
473,861	539,89
474,294	631,31
474,726	525,06
475,158	569,54
475,59	638,72
476,022	488
476,454	547,3
476,886	500,35
477,318	586,83
477,75	502,82
478,181	564,59
478,613	589,3
479,045	532,47
479,476	554,71
479,908	557,18
480,339	584,36
480,771	517,65
481,202	542,36
481,634	594,25
482,065	663,43
482,496	569,54
482,927	554,71
483,358	557,18
483,789	534,94
484,22	579,42
484,651	621,42
485,082	549,77
485,513	559,65
485,944	604,13
486,375	591,77
486,805	502,82
487,236	586,83
487,667	537,42
488,097	544,83
488,527	532,47
488,958	611,54
489,388	594,25
489,819	525,06
490,249	628,84
490,679	557,18
491,109	611,54
491,539	599,19
491,969	648,6
492,399	552,24
492,829	589,3
493,259	567,07
493,689	626,37
494,119	665,9
494,548	606,6
494,978	641,19
495,408	564,59
495,837	628,84
496,267	658,49
496,696	668,37
497,126	636,25
497,555	623,9
497,984	675,78
498,413	636,25
498,843	651,08
499,272	722,73
499,701	717,79
500,13	658,49
500,559	693,08
500,988	651,08
501,417	683,2
501,845	769,68
502,274	690,61
502,703	801,8
503,131	814,15
503,56	722,73
503,988	690,61
504,417	774,62
504,845	727,67
505,274	841,33
505,702	717,79
506,13	833,92
506,558	782,03
506,987	784,5
507,415	890,75
507,843	828,98
508,271	821,57
508,699	905,58
509,126	890,75
509,554	826,51
509,982	838,86
510,41	875,92
510,837	912,99
511,265	880,87
511,693	917,93
512,12	868,51
512,547	843,8
512,975	950,05
513,402	890,75
513,829	908,05
514,257	912,99
514,684	959,93
515,111	940,17
515,538	969,82
515,965	937,7
516,392	1039
516,819	866,04
517,246	1009,35
517,672	994,53
518,099	922,87
518,526	1058,77
518,952	1110,66
519,379	984,64
519,805	1071,12
520,232	940,17
520,658	1009,35
521,085	1004,41
521,511	1051,36
521,937	1034,06
522,363	1068,65
522,789	979,7
523,215	972,29
523,641	1083,48
524,067	1105,72
524,493	1039
524,919	1053,83
525,345	1098,3
525,771	1125,48
526,196	1110,66
526,622	1088,42
527,047	1051,36
527,473	1147,72
527,898	1145,25
528,324	1167,49
528,749	1167,49
529,174	1113,13
529,6	1132,9
530,025	1130,43
530,45	1098,3
530,875	1132,9
531,3	1150,19
531,725	1110,66
532,15	1034,06
532,575	1108,19
532,999	1179,84
533,424	1098,3
533,849	1123,01
534,273	1125,48
534,698	1058,77
535,122	1068,65
535,547	1147,72
535,971	1145,25
536,396	1169,96
536,82	1152,66
537,244	1197,14
537,668	1271,26
538,092	1194,67
538,517	1132,9
538,941	1278,68
539,364	1162,55
539,788	1268,79
540,212	1244,09
540,636	1224,32
541,06	1231,73
541,483	1184,78
541,907	1182,31
542,331	1194,67
542,754	1258,91
543,178	1239,14
543,601	1258,91
544,024	1194,67
544,448	1239,14
544,871	1286,09
545,294	1197,14
545,717	1409,63
546,14	1565,3
546,563	1602,36
546,986	1602,36
547,409	1567,77
547,832	1486,23
548,255	1493,64
548,677	1330,57
549,1	1384,93
549,522	1298,44
549,945	1182,31
550,368	1276,21
550,79	1253,97
551,212	1261,38
551,635	1310,8
552,057	1258,91
552,479	1236,67
552,901	1219,38
553,323	1347,86
553,745	1253,97
554,167	1320,68
554,589	1286,09
555,011	1404,69
555,433	1379,98
555,855	1244,09
556,277	1268,79
556,698	1345,39
557,12	1370,1
557,541	1273,74
557,963	1333,04
558,384	1370,1
558,806	1340,45
559,227	1362,69
559,648	1303,39
560,069	1407,16
560,49	1313,27
560,912	1337,98
561,333	1308,33
561,754	1426,93
562,174	1276,21
562,595	1313,27
563,016	1424,46
563,437	1345,39
563,858	1310,8
564,278	1444,23
564,699	1431,87
565,119	1444,23
565,54	1310,8
565,96	1496,11
566,38	1439,28
566,801	1565,3
567,221	1562,83
567,641	1570,24
568,061	1686,37
568,481	1955,7
568,901	2052,06
569,321	2225,02
569,741	2608,01
570,161	2909,45
570,581	3398,69
571,001	3907,69
571,42	4493,28
571,84	5261,73
572,259	6262,43
572,679	7322,44
573,098	8594,94
573,518	10060,16
573,937	11515,51
574,356	13702,23
574,775	15352,78
575,195	18139,92
575,614	20472,43
576,033	22842
576,452	26068,96
576,871	28974,71
577,29	31954,58
577,708	34682,43
578,127	37504,17
578,546	40941,15
578,964	43654,17
579,383	46087,98
579,801	48380,95
580,22	50538,03
580,638	52225,64
581,057	53582,15
581,475	54360,47
581,893	56006,07
582,311	56139,5
582,73	56154,33
583,148	56544,72
583,566	56683,09
583,984	55825,7
584,401	54839,82
584,819	54417,3
585,237	53011,37
585,655	50861,71
586,072	48677,46
586,49	46826,77
586,908	44904,43
587,325	42863,49
587,742	41101,76
588,16	39406,74
588,577	38381,33
588,994	37682,07
589,412	35791,85
589,829	34304,38
590,246	32779,85
590,663	30901,99
591,08	28468,18
591,497	26118,38
591,914	23684,57
592,33	20778,82
592,747	18955,31
593,164	17603,74
593,58	16687,05
593,997	16546,21
594,413	18018,85
594,83	19207,34
595,246	21804,23
595,663	23973,66
596,079	26395,12
596,495	29187,2
596,911	31406,05
597,327	32868,81
597,743	33390,16
598,159	34086,95
598,575	32730,44
598,991	31294,86
599,407	29362,64
599,823	26815,16
600,238	24326,99
600,654	21841,29
601,07	19165,34
601,485	16850,13
601,901	15493,62
602,316	14475,62
602,731	13687,41
603,147	14006,15
603,562	14201,35
603,977	14665,87
604,392	15881,54
604,807	16835,3
605,222	18700,81
605,637	20190,75
606,052	21752,34
606,467	22760,46
606,882	23113,79
607,296	24072,49
607,711	25191,8
608,125	25488,3
608,54	26496,42
608,954	25799,63
609,369	25241,22
609,783	24608,67
610,197	24163,92
610,612	23822,93
611,026	22827,17
611,44	22251,46
611,854	21060,5
612,268	19938,72
612,682	19150,51
613,096	17986,73
613,51	16832,83
613,923	15995,21
614,337	15004,38
614,751	14379,25
615,164	13534,21
615,578	12711,41
615,991	11747,77
616,405	11164,65
616,818	10603,76
617,231	10383,85
617,645	10047,81
618,058	9689,53
618,471	9042,16
618,884	8518,34
619,297	7910,5
619,71	7475,63
620,123	7062,99
620,536	6615,77
620,948	6408,21
621,361	6010,4
621,774	5387,74
622,186	4812,03
622,599	4483,4
623,011	3944,75
623,424	3717,43
623,836	3569,18
624,248	3546,94
624,661	3724,84
625,073	4058,41
625,485	4330,21
625,897	4794,73
626,309	5385,27
626,721	6047,46
627,133	6734,37
627,545	7636,24
627,956	8466,45
628,368	9477,04
628,78	10322,08
629,191	11658,82
629,603	12797,89
630,014	13598,46
630,426	14631,28
630,837	15038,98
631,248	15530,68
631,66	15085,92
632,071	14754,83
632,482	13768,95
632,893	12901,67
633,304	12049,22
633,715	10971,92
634,126	10074,99
634,536	9153,35
634,947	8323,14
635,358	7557,17
635,769	7166,77
636,179	6697,3
636,59	6094,41
637	5708,96
637,41	5439,63
637,821	5022,05
638,231	4713,19
638,641	4644,01
639,051	4441,4
639,462	4211,61
639,872	4028,76
640,282	3937,34
640,691	3675,43
641,101	3524,7
641,511	3287,5
641,921	3121,95
642,331	3005,82
642,74	2825,44
643,15	2746,38
643,559	2696,96
643,969	2706,84
644,378	2818,03
644,787	3062,65
645,197	3215,84
645,606	3448,11
646,015	3710,02
646,424	3934,87
646,833	4095,47
647,242	4315,38
647,651	4490,81
648,06	4740,37
648,469	4745,31
648,877	4997,34
649,286	5078,88
649,694	5071,47
650,103	5266,67
650,512	5279,02
650,92	5444,57
651,328	5617,53
651,737	5837,44
652,145	6037,58
652,553	6633,06
652,961	7114,88
653,369	7828,97
653,777	8478,81
654,185	9333,73
654,593	10457,98
655,001	11765,07
655,409	12983,21
655,816	13929,55
656,224	14717,76
656,631	15750,59
657,039	16249,71
657,446	17131,81
657,854	17801,41
658,261	17954,61
658,668	18115,22
659,076	18102,86
659,483	17969,43
659,89	17544,44
660,297	17428,31
660,704	17013,21
661,111	16514,09
661,518	16383,13
661,924	15711,05
662,331	15666,58
662,738	15281,12
663,144	14641,17
663,551	14438,55
663,957	13978,97
664,364	13650,35
664,77	13032,63
665,177	12587,87
665,583	12333,37
665,989	11747,77
666,395	11451,27
666,801	11399,38
667,207	10924,97
667,613	10756,95
668,019	10608,7
668,425	10707,53
668,83	10537,04
669,236	10448,09
669,642	10393,73
670,047	10695,18
670,453	10981,8
670,858	11475,98
671,264	11703,3
671,669	11903,44
672,074	12227,12
672,48	12642,23
672,885	12775,66
673,29	13388,43
673,695	13546,57
674,1	13857,9
674,505	14164,29
674,909	14655,99
675,314	14478,09
675,719	14512,68
676,124	14875,9
676,528	14836,36
676,933	15229,23
677,337	15150,17
677,742	15414,55
678,146	15404,67
678,55	15360,19
678,955	15337,95
679,359	15367,6
679,763	15629,52
680,167	15624,57
680,571	15829,66
680,975	15812,36
681,379	16029,8
681,782	15884,02
682,186	16182,99
682,59	16242,29
682,993	16430,08
683,397	16538,8
683,8	16818,01
684,204	17070,04
684,607	16897,07
685,011	17208,4
685,414	16803,18
685,817	17260,29
686,22	17168,87
686,623	17013,21
687,026	17401,13
687,429	17079,92
687,832	17183,7
688,235	16926,72
688,638	16956,38
689,04	16425,14
689,443	16472,08
689,845	16242,29
690,248	16029,8
690,65	15827,19
691,053	15599,87
691,455	15441,73
691,857	15167,46
692,26	14616,46
692,662	14796,83
693,064	14574,45
693,466	14450,91
693,868	14374,31
694,27	14310,07
694,671	14253,24
695,073	14112,4
695,475	13833,19
695,877	13778,83
696,278	13529,27
696,68	13452,68
697,081	13479,85
697,483	13227,83
697,884	12973,33
698,285	13321,72
698,686	13106,75
699,087	12778,13
699,489	12780,6
699,89	12837,43
700,291	12832,49
700,691	12790,48
701,092	12466,8
701,493	12637,29
701,894	12669,41
702,294	12335,84
702,695	12508,8
703,096	12548,34
703,496	12481,62
703,896	12298,78
704,297	12241,95
704,697	12293,84
705,097	12145,58
705,497	12120,87
705,897	12325,96
706,297	12209,83
706,697	12288,89
707,097	12481,62
707,497	12291,36
707,897	12251,83
708,297	12118,4
708,696	12454,44
709,096	12447,03
709,495	12481,62
