Data from FLMS187131_13-06-29-691.txt Node
Date: Mon Dec 23 13:06:29 MSK 2024
User: FemtoLab1
Spectrometer: FLMS18713
Trigger mode: 0
Integration Time (sec): 6,500000E-2
Scans to average: 1
Electric dark correction enabled: true
Nonlinearity correction enabled: false
Boxcar width: 0
XAxis mode: Wavelengths
Number of Pixels in Spectrum: 2048
>>>>>Begin Spectral Data<<<<<
190,252	-26,41
190,715	-26,41
191,177	-26,41
191,64	-130,18
192,102	-88,18
192,565	-117,83
193,027	-51,12
193,49	-83,24
193,952	-135,13
194,415	-46,17
194,877	-85,71
195,339	3,24
195,802	-23,94
196,264	65,01
196,726	-18,99
197,188	30,42
197,65	55,13
198,112	50,19
198,574	129,26
199,036	116,9
199,498	111,96
199,96	203,38
200,421	200,91
200,883	230,56
201,345	260,21
201,807	257,74
202,268	321,99
202,73	406
203,191	312,1
203,653	366,46
204,114	324,46
204,576	277,51
205,037	368,93
205,498	420,82
205,96	408,47
206,421	339,28
206,882	462,83
207,343	475,18
207,804	450,47
208,265	420,82
208,726	480,12
209,187	423,29
209,648	472,71
210,109	425,76
210,57	425,76
211,031	499,89
211,492	418,35
211,952	502,36
212,413	497,42
212,874	393,64
213,334	494,95
213,795	494,95
214,255	428,23
214,716	386,23
215,176	482,59
215,636	541,89
216,097	413,41
216,557	401,05
217,017	462,83
217,477	423,29
217,938	368,93
218,398	423,29
218,858	415,88
219,318	423,29
219,778	423,29
220,238	425,76
220,698	388,7
221,157	393,64
221,617	472,71
222,077	408,47
222,537	428,23
222,996	376,35
223,456	388,7
223,915	393,64
224,375	415,88
224,834	391,17
225,294	438,12
225,753	435,65
226,213	368,93
226,672	433,18
227,131	381,29
227,59	440,59
228,05	408,47
228,509	420,82
228,968	388,7
229,427	406
229,886	480,12
230,345	401,05
230,804	485,06
231,263	351,64
231,721	388,7
232,18	440,59
232,639	415,88
233,098	477,65
233,556	420,82
234,015	435,65
234,473	391,17
234,932	438,12
235,39	415,88
235,849	450,47
236,307	408,47
236,765	445,53
237,224	415,88
237,682	408,47
238,14	465,3
238,598	440,59
239,056	359,05
239,514	443,06
239,972	371,4
240,43	448
240,888	440,59
241,346	460,35
241,804	448
242,262	406
242,72	435,65
243,177	440,59
243,635	460,35
244,093	401,05
244,55	457,88
245,008	457,88
245,465	460,35
245,923	430,7
246,38	539,42
246,837	440,59
247,295	415,88
247,752	470,24
248,209	460,35
248,666	435,65
249,123	430,7
249,58	467,77
250,037	381,29
250,494	440,59
250,951	472,71
251,408	440,59
251,865	401,05
252,322	435,65
252,779	435,65
253,235	428,23
253,692	465,3
254,149	396,11
254,605	418,35
255,062	428,23
255,518	509,77
255,975	457,88
256,431	408,47
256,887	430,7
257,344	485,06
257,8	420,82
258,256	430,7
258,712	420,82
259,168	470,24
259,625	497,42
260,081	455,41
260,537	470,24
260,992	465,3
261,448	391,17
261,904	420,82
262,36	477,65
262,816	435,65
263,272	438,12
263,727	509,77
264,183	480,12
264,638	420,82
265,094	482,59
265,549	455,41
266,005	430,7
266,46	480,12
266,916	480,12
267,371	492,48
267,826	457,88
268,281	460,35
268,737	445,53
269,192	490,01
269,647	428,23
270,102	435,65
270,557	499,89
271,012	482,59
271,467	514,71
271,921	440,59
272,376	472,71
272,831	465,3
273,286	448
273,74	438,12
274,195	455,41
274,649	448
275,104	492,48
275,558	455,41
276,013	450,47
276,467	472,71
276,922	494,95
277,376	462,83
277,83	448
278,284	450,47
278,739	457,88
279,193	428,23
279,647	477,65
280,101	490,01
280,555	420,82
281,009	415,88
281,462	509,77
281,916	470,24
282,37	450,47
282,824	450,47
283,278	497,42
283,731	435,65
284,185	529,54
284,638	410,94
285,092	445,53
285,545	410,94
285,999	457,88
286,452	519,66
286,905	460,35
287,359	512,24
287,812	455,41
288,265	386,23
288,718	504,83
289,171	480,12
289,624	457,88
290,077	408,47
290,53	428,23
290,983	492,48
291,436	410,94
291,889	460,35
292,342	504,83
292,794	460,35
293,247	497,42
293,7	425,76
294,152	470,24
294,605	457,88
295,057	450,47
295,51	480,12
295,962	477,65
296,414	455,41
296,867	480,12
297,319	465,3
297,771	475,18
298,223	445,53
298,675	477,65
299,128	455,41
299,58	452,94
300,032	452,94
300,483	467,77
300,935	534,48
301,387	507,3
301,839	477,65
302,291	527,07
302,742	480,12
303,194	497,42
303,646	450,47
304,097	460,35
304,549	430,7
305	435,65
305,451	480,12
305,903	450,47
306,354	465,3
306,805	460,35
307,257	492,48
307,708	450,47
308,159	425,76
308,61	403,52
309,061	499,89
309,512	477,65
309,963	475,18
310,414	502,36
310,865	418,35
311,315	435,65
311,766	440,59
312,217	482,59
312,668	477,65
313,118	509,77
313,569	418,35
314,019	450,47
314,47	477,65
314,92	504,83
315,37	450,47
315,821	420,82
316,271	450,47
316,721	480,12
317,171	512,24
317,622	435,65
318,072	455,41
318,522	470,24
318,972	420,82
319,422	472,71
319,872	457,88
320,321	462,83
320,771	509,77
321,221	490,01
321,671	443,06
322,12	425,76
322,57	502,36
323,019	391,17
323,469	514,71
323,918	507,3
324,368	477,65
324,817	443,06
325,267	410,94
325,716	448
326,165	455,41
326,614	519,66
327,063	522,13
327,512	534,48
327,961	386,23
328,41	443,06
328,859	445,53
329,308	536,95
329,757	457,88
330,206	472,71
330,655	522,13
331,103	497,42
331,552	450,47
332,001	455,41
332,449	492,48
332,898	492,48
333,346	440,59
333,794	425,76
334,243	467,77
334,691	497,42
335,139	438,12
335,588	460,35
336,036	457,88
336,484	420,82
336,932	504,83
337,38	529,54
337,828	504,83
338,276	430,7
338,724	480,12
339,172	462,83
339,619	386,23
340,067	457,88
340,515	514,71
340,962	450,47
341,41	452,94
341,858	487,53
342,305	425,76
342,753	443,06
343,2	475,18
343,647	457,88
344,095	514,71
344,542	457,88
344,989	413,41
345,436	448
345,883	450,47
346,33	438,12
346,777	455,41
347,224	527,07
347,671	406
348,118	504,83
348,565	440,59
349,012	448
349,458	475,18
349,905	467,77
350,352	517,18
350,798	494,95
351,245	465,3
351,691	532,01
352,138	465,3
352,584	499,89
353,03	472,71
353,477	443,06
353,923	448
354,369	452,94
354,815	455,41
355,261	462,83
355,707	477,65
356,153	455,41
356,599	433,18
357,045	428,23
357,491	413,41
357,937	450,47
358,382	457,88
358,828	462,83
359,274	470,24
359,719	457,88
360,165	490,01
360,61	499,89
361,056	482,59
361,501	465,3
361,947	440,59
362,392	445,53
362,837	529,54
363,282	448
363,727	448
364,173	549,31
364,618	457,88
365,063	504,83
365,508	485,06
365,952	440,59
366,397	391,17
366,842	450,47
367,287	438,12
367,732	482,59
368,176	450,47
368,621	509,77
369,065	401,05
369,51	480,12
369,954	452,94
370,399	440,59
370,843	485,06
371,287	475,18
371,732	460,35
372,176	467,77
372,62	465,3
373,064	467,77
373,508	512,24
373,952	549,31
374,396	401,05
374,84	433,18
375,284	465,3
375,728	546,84
376,172	465,3
376,615	455,41
377,059	477,65
377,503	462,83
377,946	480,12
378,39	438,12
378,833	482,59
379,277	470,24
379,72	452,94
380,163	509,77
380,607	475,18
381,05	467,77
381,493	480,12
381,936	482,59
382,379	460,35
382,822	477,65
383,265	455,41
383,708	455,41
384,151	448
384,594	470,24
385,037	514,71
385,479	487,53
385,922	457,88
386,365	460,35
386,807	470,24
387,25	428,23
387,692	465,3
388,135	490,01
388,577	470,24
389,019	410,94
389,461	406
389,904	452,94
390,346	445,53
390,788	415,88
391,23	470,24
391,672	438,12
392,114	487,53
392,556	497,42
392,998	487,53
393,44	475,18
393,881	480,12
394,323	465,3
394,765	470,24
395,206	450,47
395,648	438,12
396,09	475,18
396,531	457,88
396,972	490,01
397,414	415,88
397,855	381,29
398,296	428,23
398,738	475,18
399,179	475,18
399,62	462,83
400,061	465,3
400,502	420,82
400,943	472,71
401,384	443,06
401,825	462,83
402,265	438,12
402,706	490,01
403,147	532,01
403,588	497,42
404,028	472,71
404,469	524,6
404,909	440,59
405,35	492,48
405,79	415,88
406,23	467,77
406,671	438,12
407,111	519,66
407,551	477,65
407,991	477,65
408,431	490,01
408,871	445,53
409,311	514,71
409,751	440,59
410,191	465,3
410,631	490,01
411,071	527,07
411,511	492,48
411,95	425,76
412,39	522,13
412,83	410,94
413,269	430,7
413,709	413,41
414,148	418,35
414,587	546,84
415,027	539,42
415,466	470,24
415,905	477,65
416,345	425,76
416,784	455,41
417,223	381,29
417,662	480,12
418,101	450,47
418,54	492,48
418,979	403,52
419,417	450,47
419,856	490,01
420,295	445,53
420,734	467,77
421,172	477,65
421,611	524,6
422,049	504,83
422,488	452,94
422,926	425,76
423,364	509,77
423,803	497,42
424,241	556,72
424,679	532,01
425,117	477,65
425,555	559,19
425,994	415,88
426,432	445,53
426,87	507,3
427,307	445,53
427,745	583,9
428,183	502,36
428,621	512,24
429,058	460,35
429,496	443,06
429,934	536,95
430,371	497,42
430,809	507,3
431,246	559,19
431,684	443,06
432,121	445,53
432,558	480,12
432,995	445,53
433,433	465,3
433,87	433,18
434,307	532,01
434,744	470,24
435,181	527,07
435,618	527,07
436,055	591,31
436,491	596,25
436,928	490,01
437,365	460,35
437,801	514,71
438,238	497,42
438,675	514,71
439,111	460,35
439,548	475,18
439,984	556,72
440,42	574,01
440,857	536,95
441,293	554,25
441,729	591,31
442,165	539,42
442,601	556,72
443,037	578,96
443,473	512,24
443,909	527,07
444,345	564,13
444,781	554,25
445,217	583,9
445,652	551,78
446,088	559,19
446,524	566,6
446,959	532,01
447,395	551,78
447,83	606,14
448,266	524,6
448,701	485,06
449,136	551,78
449,572	611,08
450,007	574,01
450,442	650,61
450,877	611,08
451,312	556,72
451,747	546,84
452,182	601,19
452,617	581,43
453,052	620,96
453,486	578,96
453,921	564,13
454,356	616,02
454,79	601,19
455,225	546,84
455,66	564,13
456,094	561,66
456,528	559,19
456,963	571,54
457,397	569,07
457,831	625,9
458,265	586,37
458,7	534,48
459,134	576,49
459,568	480,12
460,002	569,07
460,436	648,14
460,87	571,54
461,303	574,01
461,737	549,31
462,171	534,48
462,605	564,13
463,038	522,13
463,472	527,07
463,905	554,25
464,339	561,66
464,772	541,89
465,205	541,89
465,639	559,19
466,072	566,6
466,505	566,6
466,938	591,31
467,371	576,49
467,804	593,78
468,237	593,78
468,67	628,37
469,103	596,25
469,536	613,55
469,969	625,9
470,402	640,73
470,834	623,43
471,267	578,96
471,699	576,49
472,132	667,91
472,564	660,5
472,997	739,56
473,429	628,37
473,861	648,14
474,294	643,2
474,726	665,44
475,158	660,5
475,59	712,38
476,022	633,32
476,454	650,61
476,886	628,37
477,318	601,19
477,75	744,51
478,181	764,27
478,613	788,98
479,045	796,39
479,476	754,39
479,908	821,1
480,339	796,39
480,771	793,92
481,202	771,68
481,634	919,94
482,065	848,28
482,496	840,87
482,927	865,58
483,358	937,23
483,789	952,06
484,22	981,71
484,651	937,23
485,082	1033,6
485,513	1065,72
485,944	1013,83
486,375	1137,37
486,805	1169,5
487,236	1196,68
487,667	1288,1
488,097	1399,29
488,527	1594,49
488,958	1764,98
489,388	2009,59
489,819	2209,73
490,249	2367,87
490,679	2684,14
491,109	3035,01
491,539	3321,63
491,969	3761,44
492,399	4418,7
492,829	4621,31
493,259	5315,62
493,689	5794,97
494,119	6311,39
494,548	6941,46
494,978	7749,43
495,408	8428,92
495,837	9172,66
496,267	10111,59
496,696	10714,48
497,126	11364,32
497,555	12298,31
497,984	13173
498,413	14275,01
498,843	14877,91
499,272	15638,94
499,701	16797,78
500,13	17605,75
500,559	18532,33
500,988	19243,94
501,417	20247,12
501,845	21294,77
502,274	22377,01
502,703	22947,78
503,131	24054,73
503,56	24862,71
503,988	25648,45
504,417	26159,92
504,845	26644,21
505,274	27207,57
505,702	27956,24
506,13	28625,85
506,558	29189,21
506,987	30063,9
507,415	30908,94
507,843	31726,8
508,271	32275,33
508,699	32764,57
509,126	33597,25
509,554	34301,45
509,982	34669,61
510,41	34889,52
510,837	35099,54
511,265	35630,78
511,693	36179,31
512,12	36280,62
512,547	36923,05
512,975	37231,91
513,402	37679,13
513,829	38067,06
514,257	38425,34
514,684	38094,24
515,111	38909,63
515,538	38665,01
515,965	38190,61
516,392	38198,02
516,819	38215,31
517,246	37911,4
517,672	37328,27
518,099	37002,12
518,526	36478,29
518,952	35546,77
519,379	35989,06
519,805	35282,39
520,232	35257,68
520,658	35376,28
521,085	35116,84
521,511	35126,72
521,937	35989,06
522,363	35611,01
522,789	35897,63
523,215	36774,79
523,641	36769,85
524,067	37385,1
524,493	37842,21
524,919	38084,36
525,345	38889,86
525,771	40399,57
526,196	40602,18
526,622	41701,72
527,047	41773,37
527,473	42309,55
527,898	42850,67
528,324	43040,93
528,749	43003,87
529,174	43216,36
529,6	42986,57
530,025	42475,1
530,45	42541,82
530,875	42783,96
531,3	42237,9
531,725	41694,31
532,15	41694,31
532,575	41402,74
532,999	40985,16
533,424	40631,83
533,849	40883,86
534,273	40864,09
534,698	40599,71
535,122	40332,85
535,547	40490,99
535,971	40750,43
536,396	40893,74
536,82	40841,85
537,244	41533,7
537,668	41874,68
538,092	42818,55
538,517	42890,21
538,941	43695,71
539,364	44417,21
539,788	45615,58
540,212	46206,12
540,636	47189,53
541,06	47078,34
541,483	47893,73
541,907	48795,6
542,331	48911,73
542,754	50703,11
543,178	51029,27
543,601	52618,04
544,024	52978,79
544,448	53665,69
544,871	54604,62
545,294	55657,22
545,717	55889,48
546,14	56010,55
546,563	55701,69
546,986	54891,25
547,409	53574,27
547,832	52385,78
548,255	49954,44
548,677	47972,8
549,1	45585,93
549,522	44679,12
549,945	43606,76
550,368	42425,68
550,79	41820,32
551,212	42282,37
551,635	42727,13
552,057	43411,56
552,479	44402,38
552,901	44945,98
553,323	45986,21
553,745	46692,88
554,167	47219,18
554,589	47377,32
555,011	48138,35
555,433	48550,98
555,855	48657,23
556,277	49255,18
556,698	48578,16
557,12	48845,02
557,541	48271,77
557,963	48002,45
558,384	47318,02
558,806	46455,68
559,227	46505,1
559,648	45536,52
560,069	43797,02
560,49	43048,34
560,912	42302,14
561,333	40300,73
561,754	38684,78
562,174	37815,03
562,595	35986,59
563,016	35247,79
563,437	33688,67
563,858	32979,53
564,278	32193,79
564,699	31116,49
565,119	31044,84
565,54	31286,98
565,96	31151,08
566,38	31494,54
566,801	32191,32
567,221	32974,59
567,641	33703,5
568,061	33967,88
568,481	34998,24
568,901	35791,39
569,321	36950,23
569,741	37194,84
570,161	37970,7
570,581	38242,49
571,001	38981,29
571,42	39401,33
571,84	39149,31
572,259	40184,6
572,679	40088,24
573,098	40219,19
573,518	40686,19
573,937	40456,4
574,356	40584,88
574,775	40367,45
575,195	40582,41
575,614	40503,34
576,033	40671,36
576,452	39752,2
576,871	40829,5
577,29	40535,47
577,708	40164,83
578,127	40174,72
578,546	40797,38
578,964	39917,75
579,383	40019,05
579,801	40278,49
580,22	40224,14
580,638	39779,38
581,057	40095,65
581,475	39517,47
581,893	39801,62
582,311	39216,02
582,73	38909,63
583,148	38543,94
583,566	39045,53
583,984	38321,56
584,401	38494,52
584,819	38593,36
585,237	38059,65
585,655	37780,44
586,072	37691,49
586,49	38010,23
586,908	37698,9
587,325	37372,75
587,742	37548,18
588,16	37276,38
588,577	37234,38
588,994	36658,66
589,412	36900,81
589,829	36176,84
590,246	35976,7
590,663	36490,64
591,08	36582,07
591,497	36614,19
591,914	37054
592,33	36621,6
592,747	37110,83
593,164	37607,48
593,58	37187,43
593,997	37644,54
594,413	38259,79
594,83	38613,13
595,246	38227,67
595,663	38274,62
596,079	38677,37
596,495	38766,32
596,911	38855,27
597,327	39171,54
597,743	38610,65
598,159	38857,74
598,575	38363,57
598,991	38343,8
599,407	38432,75
599,823	38833,03
600,238	38165,9
600,654	38783,62
601,07	38551,35
601,485	38165,9
601,901	38207,9
602,316	37997,88
602,731	37600,07
603,147	37177,55
603,562	37276,38
603,977	36834,1
604,392	36446,17
604,807	36441,23
605,222	35779,03
605,637	35937,17
606,052	35326,86
606,467	35329,33
606,882	35475,11
607,296	34565,83
607,711	34467
608,125	34696,79
608,54	34331,1
608,954	33990,12
609,369	34153,2
609,783	34375,58
610,197	33515,71
610,612	33520,65
611,026	33093,19
611,44	32838,69
611,854	33142,61
612,268	32090,02
612,682	32265,45
613,096	31637,85
613,51	31336,4
613,923	31657,61
614,337	30661,85
614,751	30402,41
615,164	30676,68
615,578	30481,48
615,991	30083,67
616,405	30120,73
616,818	29811,87
617,231	29683,39
617,645	28734,57
618,058	28808,7
618,471	28134,15
618,884	27506,55
619,297	27758,57
619,71	26750,46
620,123	26624,44
620,536	26656,56
620,948	26016,61
621,361	25944,95
621,774	25870,83
622,186	25784,35
622,599	25754,7
623,011	25431,01
623,424	25814
623,836	25282,76
624,248	25107,33
624,661	25211,1
625,073	24573,62
625,485	24539,03
625,897	24450,07
626,309	23750,82
626,721	23555,62
627,133	23296,18
627,545	22932,96
627,956	23155,34
628,368	22799,53
628,78	22500,55
629,191	22122,51
629,603	22070,62
630,014	21638,22
630,426	21312,06
630,837	21210,76
631,248	20696,82
631,66	20778,35
632,071	20341,01
632,482	20286,65
632,893	20135,93
633,304	19824,6
633,715	19604,69
634,126	19844,36
634,536	19184,64
634,947	19209,35
635,358	18974,62
635,769	19085,81
636,179	18781,89
636,59	18618,81
637	18285,24
637,41	18208,65
637,821	18119,69
638,231	18038,15
638,641	17823,19
639,051	17961,56
639,462	17539,04
639,872	17539,04
640,282	17432,79
640,691	17509,39
641,101	17232,65
641,511	17257,36
641,921	17203
642,331	17012,74
642,74	16965,8
643,15	16782,95
643,559	16745,89
643,969	16649,52
644,378	16501,27
644,787	16491,39
645,197	16320,9
645,606	16007,1
646,015	15661,17
646,424	15858,84
646,833	15764,95
647,242	15542,57
647,651	15769,89
648,06	15730,36
648,469	15231,24
648,877	15302,9
649,286	15171,94
649,694	15483,27
650,103	15344,9
650,512	15095,34
650,92	15325,13
651,328	15134,88
651,737	14924,85
652,145	15142,29
652,553	14969,33
652,961	14821,08
653,369	14529,51
653,777	14571,52
654,185	14541,87
654,593	14178,65
655,001	14396,09
655,409	14126,76
655,816	14134,17
656,224	13980,98
656,631	13674,59
657,039	13719,07
657,446	13432,45
657,854	13602,94
658,261	13580,7
658,668	13264,43
659,076	13415,15
659,483	13133,47
659,89	13002,51
660,297	12743,07
660,704	12560,23
661,111	12701,07
661,518	12308,2
661,924	12028,99
662,331	11964,75
662,738	11794,26
663,144	11458,22
663,551	11307,49
663,957	11359,38
664,364	11183,95
664,77	11060,41
665,177	10857,79
665,583	10568,7
665,989	10314,2
666,395	10329,03
666,801	10133,83
667,207	10086,88
667,613	9760,73
668,019	9879,33
668,425	9530,93
668,83	9320,91
669,236	9493,87
669,642	9207,25
670,047	9222,08
670,453	8940,4
670,858	8898,39
671,264	8668,6
671,669	8624,12
672,074	8507,99
672,48	8302,91
672,885	8199,13
673,29	8018,76
673,695	8001,46
674,1	7949,57
674,505	7850,74
674,909	7640,72
675,314	7363,98
675,719	7428,22
676,124	7230,55
676,528	7166,31
676,933	6961,23
677,337	6951,34
677,742	6998,29
678,146	6775,91
678,55	6625,19
678,955	6627,66
679,359	6479,4
679,763	6486,82
680,167	6558,47
680,571	6301,5
680,975	6207,61
681,379	6084,06
681,782	6113,72
682,186	5851,8
682,59	5851,8
682,993	5992,64
683,397	5876,51
683,8	5723,32
684,204	5780,15
684,607	5745,55
685,011	5683,78
685,414	5550,36
685,817	5587,42
686,22	5350,22
686,623	5372,45
687,026	5310,68
687,429	5283,5
687,832	5258,79
688,235	5164,9
688,638	5204,43
689,04	5075,95
689,443	5046,3
689,845	4989,47
690,248	4987
690,65	4828,86
691,053	4937,58
691,455	4774,5
691,857	4816,51
692,26	4715,2
692,662	4838,74
693,064	4675,67
693,466	4579,3
693,868	4571,89
694,27	4742,38
694,671	4601,54
695,073	4524,94
695,475	4364,34
695,877	4473,05
696,278	4480,47
696,68	4497,76
697,081	4470,58
697,483	4463,17
697,884	4359,39
698,285	4324,8
698,686	4554,59
699,087	4334,69
699,489	4413,75
699,89	4297,62
700,291	4349,51
700,691	4351,98
701,092	4122,19
701,493	4280,33
701,894	4228,44
702,294	4258,09
702,695	4186,43
703,096	4164,2
703,496	4075,24
703,896	4099,95
704,297	4099,95
704,697	4067,83
