Data from FLMS187131_13-19-01-006.txt Node
Date: Mon Dec 23 13:19:01 MSK 2024
User: FemtoLab1
Spectrometer: FLMS18713
Trigger mode: 0
Integration Time (sec): 8,000000E-2
Scans to average: 1
Electric dark correction enabled: true
Nonlinearity correction enabled: false
Boxcar width: 0
XAxis mode: Wavelengths
Number of Pixels in Spectrum: 2048
>>>>>Begin Spectral Data<<<<<
190,252	-60,38
190,715	-60,38
191,177	-60,38
191,64	-92,5
192,102	-97,45
192,565	-90,03
193,027	-18,38
193,49	-75,21
193,952	-60,38
194,415	-72,74
194,877	-109,8
195,339	-48,03
195,802	31,04
196,264	-60,38
196,726	8,8
197,188	63,16
197,65	55,75
198,112	31,04
198,574	102,7
199,036	112,58
199,498	129,88
199,96	186,71
200,421	208,94
200,883	263,3
201,345	268,24
201,807	253,42
202,268	374,49
202,73	322,6
203,191	330,02
203,653	292,95
204,114	404,14
204,576	349,78
205,037	409,08
205,498	396,73
205,96	438,73
206,421	344,84
206,882	357,2
207,343	401,67
207,804	411,56
208,265	426,38
208,726	384,38
209,187	367,08
209,648	394,26
210,109	409,08
210,57	431,32
211,031	438,73
211,492	396,73
211,952	468,39
212,413	332,49
212,874	369,55
213,334	396,73
213,795	411,56
214,255	342,37
214,716	453,56
215,176	396,73
215,636	406,61
216,097	404,14
216,557	399,2
217,017	364,61
217,477	367,08
217,938	391,79
218,398	374,49
218,858	431,32
219,318	359,67
219,778	406,61
220,238	379,43
220,698	339,9
221,157	339,9
221,617	332,49
222,077	406,61
222,537	367,08
222,996	362,14
223,456	431,32
223,915	404,14
224,375	456,03
224,834	386,85
225,294	349,78
225,753	369,55
226,213	334,96
226,672	421,44
227,131	396,73
227,59	406,61
228,05	347,31
228,509	344,84
228,968	359,67
229,427	416,5
229,886	376,96
230,345	376,96
230,804	354,72
231,263	362,14
231,721	367,08
232,18	401,67
232,639	342,37
233,098	344,84
233,556	339,9
234,015	416,5
234,473	389,32
234,932	359,67
235,39	369,55
235,849	362,14
236,307	386,85
236,765	386,85
237,224	372,02
237,682	436,26
238,14	369,55
238,598	376,96
239,056	312,72
239,514	384,38
239,972	386,85
240,43	332,49
240,888	347,31
241,346	389,32
241,804	384,38
242,262	372,02
242,72	364,61
243,177	406,61
243,635	337,43
244,093	389,32
244,55	399,2
245,008	404,14
245,465	411,56
245,923	347,31
246,38	362,14
246,837	391,79
247,295	354,72
247,752	384,38
248,209	470,86
248,666	418,97
249,123	330,02
249,58	379,43
250,037	374,49
250,494	414,03
250,951	406,61
251,408	362,14
251,865	372,02
252,322	369,55
252,779	379,43
253,235	396,73
253,692	428,85
254,149	379,43
254,605	372,02
255,062	327,55
255,518	436,26
255,975	372,02
256,431	342,37
256,887	384,38
257,344	426,38
257,8	451,09
258,256	364,61
258,712	369,55
259,168	389,32
259,625	426,38
260,081	389,32
260,537	369,55
260,992	381,9
261,448	391,79
261,904	391,79
262,36	381,9
262,816	376,96
263,272	369,55
263,727	414,03
264,183	404,14
264,638	409,08
265,094	411,56
265,549	391,79
266,005	414,03
266,46	399,2
266,916	396,73
267,371	468,39
267,826	423,91
268,281	404,14
268,737	372,02
269,192	367,08
269,647	436,26
270,102	394,26
270,557	384,38
271,012	458,5
271,467	475,8
271,921	456,03
272,376	384,38
272,831	399,2
273,286	376,96
273,74	421,44
274,195	376,96
274,649	394,26
275,104	451,09
275,558	391,79
276,013	409,08
276,467	386,85
276,922	369,55
277,376	349,78
277,83	478,27
278,284	475,8
278,739	396,73
279,193	416,5
279,647	367,08
280,101	411,56
280,555	446,15
281,009	362,14
281,462	386,85
281,916	465,91
282,37	458,5
282,824	451,09
283,278	404,14
283,731	362,14
284,185	431,32
284,638	396,73
285,092	404,14
285,545	428,85
285,999	409,08
286,452	379,43
286,905	426,38
287,359	344,84
287,812	441,21
288,265	411,56
288,718	490,62
289,171	411,56
289,624	433,79
290,077	458,5
290,53	443,68
290,983	438,73
291,436	399,2
291,889	473,33
292,342	436,26
292,794	438,73
293,247	357,2
293,7	337,43
294,152	384,38
294,605	456,03
295,057	470,86
295,51	426,38
295,962	441,21
296,414	330,02
296,867	470,86
297,319	369,55
297,771	367,08
298,223	369,55
298,675	421,44
299,128	394,26
299,58	470,86
300,032	367,08
300,483	401,67
300,935	409,08
301,387	384,38
301,839	463,44
302,291	470,86
302,742	374,49
303,194	386,85
303,646	502,98
304,097	409,08
304,549	473,33
305	418,97
305,451	456,03
305,903	379,43
306,354	367,08
306,805	349,78
307,257	436,26
307,708	421,44
308,159	357,2
308,61	396,73
309,061	475,8
309,512	465,91
309,963	379,43
310,414	421,44
310,865	386,85
311,315	406,61
311,766	431,32
312,217	426,38
312,668	443,68
313,118	406,61
313,569	391,79
314,019	428,85
314,47	485,68
314,92	468,39
315,37	431,32
315,821	389,32
316,271	381,9
316,721	391,79
317,171	421,44
317,622	379,43
318,072	401,67
318,522	414,03
318,972	428,85
319,422	433,79
319,872	421,44
320,321	409,08
320,771	443,68
321,221	421,44
321,671	414,03
322,12	414,03
322,57	406,61
323,019	438,73
323,469	458,5
323,918	468,39
324,368	443,68
324,817	376,96
325,267	416,5
325,716	451,09
326,165	416,5
326,614	443,68
327,063	446,15
327,512	456,03
327,961	414,03
328,41	372,02
328,859	394,26
329,308	411,56
329,757	352,25
330,206	443,68
330,655	433,79
331,103	364,61
331,552	399,2
332,001	414,03
332,449	488,15
332,898	448,62
333,346	409,08
333,794	510,39
334,243	379,43
334,691	431,32
335,139	421,44
335,588	480,74
336,036	443,68
336,484	367,08
336,932	409,08
337,38	453,56
337,828	414,03
338,276	369,55
338,724	347,31
339,172	411,56
339,619	394,26
340,067	384,38
340,515	451,09
340,962	381,9
341,41	409,08
341,858	473,33
342,305	379,43
342,753	423,91
343,2	448,62
343,647	495,56
344,095	433,79
344,542	396,73
344,989	453,56
345,436	426,38
345,883	421,44
346,33	379,43
346,777	416,5
347,224	423,91
347,671	475,8
348,118	384,38
348,565	475,8
349,012	441,21
349,458	458,5
349,905	406,61
350,352	443,68
350,798	460,97
351,245	418,97
351,691	431,32
352,138	446,15
352,584	359,67
353,03	389,32
353,477	441,21
353,923	423,91
354,369	441,21
354,815	456,03
355,261	367,08
355,707	369,55
356,153	409,08
356,599	433,79
357,045	381,9
357,491	451,09
357,937	456,03
358,382	446,15
358,828	458,5
359,274	478,27
359,719	453,56
360,165	421,44
360,61	456,03
361,056	411,56
361,501	490,62
361,947	418,97
362,392	414,03
362,837	475,8
363,282	428,85
363,727	468,39
364,173	446,15
364,618	428,85
365,063	456,03
365,508	446,15
365,952	441,21
366,397	406,61
366,842	386,85
367,287	406,61
367,732	406,61
368,176	418,97
368,621	406,61
369,065	431,32
369,51	456,03
369,954	485,68
370,399	441,21
370,843	401,67
371,287	334,96
371,732	431,32
372,176	431,32
372,62	369,55
373,064	384,38
373,508	409,08
373,952	443,68
374,396	483,21
374,84	411,56
375,284	433,79
375,728	396,73
376,172	443,68
376,615	423,91
377,059	458,5
377,503	502,98
377,946	451,09
378,39	414,03
378,833	359,67
379,277	421,44
379,72	394,26
380,163	443,68
380,607	418,97
381,05	436,26
381,493	384,38
381,936	423,91
382,379	418,97
382,822	411,56
383,265	436,26
383,708	379,43
384,151	414,03
384,594	416,5
385,037	354,72
385,479	406,61
385,922	460,97
386,365	414,03
386,807	421,44
387,25	354,72
387,692	421,44
388,135	458,5
388,577	428,85
389,019	394,26
389,461	404,14
389,904	478,27
390,346	406,61
390,788	426,38
391,23	414,03
391,672	409,08
392,114	362,14
392,556	381,9
392,998	367,08
393,44	483,21
393,881	421,44
394,323	423,91
394,765	369,55
395,206	426,38
395,648	438,73
396,09	404,14
396,531	369,55
396,972	362,14
397,414	530,16
397,855	406,61
398,296	458,5
398,738	411,56
399,179	428,85
399,62	433,79
400,061	396,73
400,502	406,61
400,943	428,85
401,384	372,02
401,825	369,55
402,265	352,25
402,706	381,9
403,147	441,21
403,588	384,38
404,028	436,26
404,469	428,85
404,909	438,73
405,35	359,67
405,79	488,15
406,23	372,02
406,671	475,8
407,111	441,21
407,551	431,32
407,991	416,5
408,431	384,38
408,871	391,79
409,311	359,67
409,751	409,08
410,191	421,44
410,631	507,92
411,071	379,43
411,511	391,79
411,95	406,61
412,39	414,03
412,83	406,61
413,269	490,62
413,709	438,73
414,148	386,85
414,587	399,2
415,027	391,79
415,466	374,49
415,905	456,03
416,345	401,67
416,784	386,85
417,223	394,26
417,662	423,91
418,101	460,97
418,54	433,79
418,979	441,21
419,417	428,85
419,856	463,44
420,295	473,33
420,734	364,61
421,172	414,03
421,611	411,56
422,049	438,73
422,488	478,27
422,926	389,32
423,364	428,85
423,803	394,26
424,241	436,26
424,679	465,91
425,117	396,73
425,555	372,02
425,994	414,03
426,432	446,15
426,87	416,5
427,307	460,97
427,745	399,2
428,183	522,74
428,621	480,74
429,058	416,5
429,496	493,09
429,934	490,62
430,371	438,73
430,809	414,03
431,246	470,86
431,684	418,97
432,121	418,97
432,558	485,68
432,995	443,68
433,433	428,85
433,87	500,51
434,307	500,51
434,744	465,91
435,181	438,73
435,618	525,22
436,055	473,33
436,491	537,57
436,928	520,27
437,365	520,27
437,801	515,33
438,238	443,68
438,675	480,74
439,111	483,21
439,548	463,44
439,984	549,92
440,42	404,14
440,857	483,21
441,293	591,93
441,729	507,92
442,165	507,92
442,601	596,87
443,037	512,86
443,473	586,99
443,909	628,99
444,345	500,51
444,781	574,63
445,217	527,69
445,652	554,87
446,088	562,28
446,524	557,34
446,959	559,81
447,395	520,27
447,83	579,57
448,266	601,81
448,701	544,98
449,136	542,51
449,572	522,74
450,007	572,16
450,442	582,05
450,877	549,92
451,312	567,22
451,747	537,57
452,182	517,8
452,617	527,69
453,052	542,51
453,486	544,98
453,921	500,51
454,356	490,62
454,79	574,63
455,225	498,04
455,66	515,33
456,094	502,98
456,528	507,92
456,963	480,74
457,397	505,45
457,831	480,74
458,265	517,8
458,7	520,27
459,134	502,98
459,568	544,98
460,002	542,51
460,436	500,51
460,87	517,8
461,303	596,87
461,737	495,56
462,171	512,86
462,605	498,04
463,038	510,39
463,472	456,03
463,905	480,74
464,339	502,98
464,772	406,61
465,205	478,27
465,639	515,33
466,072	502,98
466,505	527,69
466,938	416,5
467,371	505,45
467,804	475,8
468,237	517,8
468,67	520,27
469,103	460,97
469,536	431,32
469,969	470,86
470,402	510,39
470,834	498,04
471,267	527,69
471,699	438,73
472,132	463,44
472,564	527,69
472,997	446,15
473,429	416,5
473,861	510,39
474,294	463,44
474,726	456,03
475,158	416,5
475,59	475,8
476,022	394,26
476,454	493,09
476,886	456,03
477,318	451,09
477,75	391,79
478,181	409,08
478,613	498,04
479,045	446,15
479,476	502,98
479,908	463,44
480,339	485,68
480,771	515,33
481,202	485,68
481,634	478,27
482,065	473,33
482,496	520,27
482,927	505,45
483,358	416,5
483,789	535,1
484,22	443,68
484,651	478,27
485,082	535,1
485,513	535,1
485,944	456,03
486,375	493,09
486,805	441,21
487,236	480,74
487,667	451,09
488,097	416,5
488,527	468,39
488,958	507,92
489,388	498,04
489,819	414,03
490,249	456,03
490,679	485,68
491,109	500,51
491,539	554,87
491,969	478,27
492,399	520,27
492,829	495,56
493,259	567,22
493,689	456,03
494,119	540,04
494,548	522,74
494,978	505,45
495,408	490,62
495,837	515,33
496,267	517,8
496,696	517,8
497,126	480,74
497,555	498,04
497,984	515,33
498,413	456,03
498,843	520,27
499,272	527,69
499,701	510,39
500,13	520,27
500,559	500,51
500,988	502,98
501,417	530,16
501,845	591,93
502,274	542,51
502,703	582,05
503,131	596,87
503,56	537,57
503,988	507,92
504,417	582,05
504,845	562,28
505,274	564,75
505,702	609,22
506,13	624,05
506,558	656,17
506,987	601,81
507,415	638,88
507,843	596,87
508,271	554,87
508,699	619,11
509,126	646,29
509,554	582,05
509,982	673,47
510,41	579,57
510,837	621,58
511,265	589,46
511,693	591,93
512,12	569,69
512,547	656,17
512,975	616,64
513,402	577,1
513,829	656,17
514,257	646,29
514,684	658,64
515,111	628,99
515,538	624,05
515,965	619,11
516,392	589,46
516,819	666,06
517,246	680,88
517,672	683,35
518,099	740,18
518,526	690,76
518,952	752,54
519,379	675,94
519,805	673,47
520,232	671
520,658	715,47
521,085	668,53
521,511	737,71
521,937	732,77
522,363	705,59
522,789	732,77
523,215	740,18
523,641	789,6
524,067	653,7
524,493	683,35
524,919	698,18
525,345	750,06
525,771	661,11
526,196	747,59
526,622	757,48
527,047	774,77
527,473	755,01
527,898	750,06
528,324	789,6
528,749	804,42
529,174	742,65
529,6	762,42
530,025	740,18
530,45	735,24
530,875	698,18
531,3	717,94
531,725	742,65
532,15	774,77
532,575	782,19
532,999	774,77
533,424	779,72
533,849	772,3
534,273	737,71
534,698	722,89
535,122	831,6
535,547	779,72
535,971	767,36
536,396	784,66
536,82	841,49
537,244	787,13
537,668	834,07
538,092	779,72
538,517	752,54
538,941	841,49
539,364	745,12
539,788	708,06
540,212	764,89
540,636	856,31
541,06	747,59
541,483	821,72
541,907	755,01
542,331	846,43
542,754	814,31
543,178	829,13
543,601	831,6
544,024	811,84
544,448	789,6
544,871	826,66
545,294	735,24
545,717	866,2
546,14	871,14
546,563	1056,45
546,986	1036,69
547,409	940,32
547,832	992,21
548,255	856,31
548,677	834,07
549,1	843,96
549,522	846,43
549,945	792,07
550,368	888,43
550,79	797,01
551,212	811,84
551,635	799,48
552,057	816,78
552,479	774,77
552,901	784,66
553,323	935,38
553,745	848,9
554,167	705,59
554,589	737,71
555,011	885,96
555,433	824,19
555,855	794,54
556,277	856,31
556,698	809,37
557,12	794,54
557,541	846,43
557,963	737,71
558,384	878,55
558,806	839,02
559,227	757,48
559,648	814,31
560,069	848,9
560,49	819,25
560,912	878,55
561,333	750,06
561,754	747,59
562,174	824,19
562,595	809,37
563,016	883,49
563,437	789,6
563,858	779,72
564,278	816,78
564,699	799,48
565,119	851,37
565,54	858,78
565,96	843,96
566,38	839,02
566,801	740,18
567,221	787,13
567,641	814,31
568,061	846,43
568,481	789,6
568,901	715,47
569,321	898,32
569,741	826,66
570,161	873,61
570,581	789,6
571,001	856,31
571,42	774,77
571,84	858,78
572,259	831,6
572,679	824,19
573,098	839,02
573,518	851,37
573,937	878,55
574,356	900,79
574,775	895,85
575,195	824,19
575,614	841,49
576,033	908,2
576,452	890,9
576,871	893,38
577,29	935,38
577,708	856,31
578,127	868,67
578,546	806,89
578,964	895,85
579,383	898,32
579,801	888,43
580,22	868,67
580,638	878,55
581,057	819,25
581,475	853,84
581,893	858,78
582,311	848,9
582,73	858,78
583,148	814,31
583,566	1068,81
583,984	913,14
584,401	883,49
584,819	839,02
585,237	777,24
585,655	846,43
586,072	787,13
586,49	885,96
586,908	903,26
587,325	764,89
587,742	809,37
588,16	839,02
588,577	848,9
588,994	836,55
589,412	816,78
589,829	839,02
590,246	848,9
590,663	824,19
591,08	839,02
591,497	819,25
591,914	883,49
592,33	992,21
592,747	841,49
593,164	1051,51
593,58	868,67
593,997	1019,39
594,413	1009,51
594,83	960,09
595,246	945,26
595,663	1056,45
596,079	960,09
596,495	940,32
596,911	974,91
597,327	972,44
597,743	1071,28
598,159	1093,52
598,575	1202,23
598,991	1382,61
599,407	1478,97
599,823	1602,52
600,238	1906,43
600,654	2163,4
601,07	2746,53
601,485	3443,32
601,901	4182,11
602,316	5177,87
602,731	6230,46
603,147	7549,91
603,562	9000,31
603,977	10586,62
604,392	12595,44
604,807	14658,62
605,222	17374,11
605,637	19247,03
606,052	22086,06
606,467	24576,71
606,882	26790,61
607,296	29165,12
607,711	31361,73
608,125	32599,63
608,54	34156,29
608,954	34645,52
609,369	34778,95
609,783	35270,65
610,197	35068,04
610,612	34507,15
611,026	33180,29
611,44	31715,06
611,854	30044,75
612,268	27872,85
612,682	25525,52
613,096	23074,41
613,51	20393,52
613,923	17892,99
614,337	15399,88
614,751	12867,23
615,164	10569,32
615,578	8852,06
615,991	6890,19
616,405	5550,97
616,818	4589,8
617,231	3757,12
617,645	3151,75
618,058	2793,48
618,471	2405,55
618,884	2348,72
619,297	2319,07
619,71	2504,39
620,123	2682,29
620,536	2996,09
620,948	3255,53
621,361	3626,16
621,774	4058,57
622,186	4602,16
622,599	4829,48
623,011	5091,39
623,424	5321,18
623,836	5528,74
624,248	5444,73
624,661	5449,67
625,073	5348,36
625,485	5368,13
625,897	5279,18
626,309	5138,34
626,721	5096,33
627,133	4824,54
627,545	4908,55
627,956	4869,01
628,368	4574,98
628,78	4466,26
629,191	4369,9
629,603	4194,46
630,014	3853,48
630,426	3700,29
630,837	3354,37
631,248	3005,97
631,66	2704,53
632,071	2405,55
632,482	2106,57
632,893	1869,37
633,304	1661,82
633,715	1481,44
634,126	1370,25
634,536	1207,18
634,947	1024,33
635,358	1058,92
635,769	972,44
636,179	918,08
636,59	806,89
637	759,95
637,41	792,07
637,821	737,71
638,231	814,31
638,641	745,12
639,051	740,18
639,462	757,48
639,872	759,95
640,282	782,19
640,691	782,19
641,101	799,48
641,511	789,6
641,921	774,77
642,331	767,36
642,74	722,89
643,15	705,59
643,559	769,83
643,969	648,76
644,378	666,06
644,787	599,34
645,197	579,57
645,606	567,22
646,015	537,57
646,424	663,58
646,833	591,93
647,242	498,04
647,651	609,22
648,06	490,62
648,469	584,52
648,877	567,22
649,286	584,52
649,694	567,22
650,103	611,7
650,512	544,98
650,92	599,34
651,328	540,04
651,737	535,1
652,145	542,51
652,553	569,69
652,961	517,8
653,369	552,39
653,777	530,16
654,185	512,86
654,593	562,28
655,001	495,56
655,409	567,22
655,816	488,15
656,224	532,63
656,631	507,92
657,039	520,27
657,446	579,57
657,854	446,15
658,261	547,45
658,668	530,16
659,076	488,15
659,483	532,63
659,89	535,1
660,297	500,51
660,704	483,21
661,111	540,04
661,518	532,63
661,924	599,34
662,331	671
662,738	591,93
663,144	735,24
663,551	750,06
663,957	735,24
664,364	794,54
664,77	814,31
665,177	821,72
665,583	839,02
665,989	881,02
666,395	925,5
666,801	836,55
667,207	871,14
667,613	888,43
668,019	925,5
668,425	893,38
668,83	923,03
669,236	960,09
669,642	918,08
670,047	942,79
670,453	876,08
670,858	846,43
671,264	806,89
671,669	848,9
672,074	831,6
672,48	878,55
672,885	883,49
673,29	868,67
673,695	982,33
674,1	984,8
674,505	962,56
674,909	1024,33
675,314	1081,16
675,719	1222
676,124	1273,89
676,528	1390,02
676,933	1451,79
677,337	1548,16
677,742	1545,69
678,146	1693,94
678,55	1703,82
678,955	1797,72
679,359	1911,38
679,763	1884,2
680,167	1968,21
680,571	2012,68
680,975	2148,58
681,379	2210,35
681,782	2326,48
682,186	2403,08
682,59	2593,34
682,993	2768,77
683,397	2899,73
683,8	3450,73
684,204	3836,19
684,607	4231,53
685,011	4839,36
685,414	5239,64
685,817	5985,85
686,22	6835,83
686,623	7878,54
687,026	8938,54
687,429	10201,16
687,832	11765,22
688,235	13193,39
688,638	14619,08
689,04	16427,76
689,443	18404,46
689,845	20262,56
690,248	22686,49
690,65	24650,83
691,053	26494,1
691,455	28979,8
691,857	31455,62
692,26	33560,81
692,662	35201,47
693,064	37734,11
693,466	39144,98
693,868	41386,06
694,27	42814,23
694,671	44400,53
695,073	46194,39
695,475	47261,8
695,877	48400,88
696,278	49223,68
696,68	49809,27
697,081	49895,76
697,483	49950,11
697,884	49868,58
698,285	50199,67
698,686	49426,29
699,087	49334,87
699,489	48161,2
699,89	47780,69
700,291	46883,76
700,691	45695,27
701,092	44207,8
701,493	42572,08
701,894	41161,21
702,294	39345,12
702,695	37538,91
703,096	35698,11
703,496	33466,91
703,896	31542,1
704,297	29926,15
704,697	27996,4
705,097	25710,84
705,497	24033,11
705,897	21799,44
706,297	20027,83
706,697	18332,81
707,097	16669,91
707,497	15288,69
707,897	13944,53
708,297	12276,69
708,696	10658,27
709,096	9674,86
709,495	8483,9
709,895	7465,9
710,294	6593,68
710,694	5654,75
711,093	4861,6
711,492	4117,87
711,891	3603,92
712,29	3094,92
712,689	2585,92
713,088	2193,06
713,487	1861,96
713,886	1619,81
714,285	1478,97
714,684	1352,96
715,082	1204,71
715,481	1152,82
715,879	1125,64
716,278	1219,53
716,676	1372,73
717,075	1555,57
717,473	1733,47
717,871	1876,78
718,269	2160,93
718,667	2479,68
719,065	2788,54
719,463	3010,91
