Data from FLMS187131_13-24-01-961.txt Node
Date: Mon Dec 23 13:24:01 MSK 2024
User: FemtoLab1
Spectrometer: FLMS18713
Trigger mode: 0
Integration Time (sec): 6,000000E-2
Scans to average: 1
Electric dark correction enabled: true
Nonlinearity correction enabled: false
Boxcar width: 0
XAxis mode: Wavelengths
Number of Pixels in Spectrum: 2048
>>>>>Begin Spectral Data<<<<<
190,252	-37,06
190,715	-37,06
191,177	-37,06
191,64	-96,36
192,102	-56,83
192,565	-98,83
193,027	-126,01
193,49	-61,77
193,952	-88,95
194,415	-103,78
194,877	-7,41
195,339	-39,53
195,802	-7,41
196,264	-17,3
196,726	-19,77
197,188	49,42
197,65	71,66
198,112	103,78
198,574	93,89
199,036	71,66
199,498	180,37
199,96	163,08
200,421	192,73
200,883	202,61
201,345	321,21
201,807	390,4
202,268	326,16
202,73	340,98
203,191	340,98
203,653	375,57
204,114	350,86
204,576	457,11
205,037	434,87
205,498	420,05
205,96	447,23
206,421	350,86
206,882	479,35
207,343	402,75
207,804	420,05
208,265	415,11
208,726	405,22
209,187	420,05
209,648	437,34
210,109	429,93
210,57	437,34
211,031	467
211,492	449,7
211,952	479,35
212,413	464,52
212,874	400,28
213,334	469,47
213,795	360,75
214,255	489,23
214,716	506,53
215,176	410,17
215,636	439,82
216,097	420,05
216,557	415,11
217,017	410,17
217,477	405,22
217,938	420,05
218,398	444,76
218,858	358,28
219,318	410,17
219,778	353,34
220,238	316,27
220,698	427,46
221,157	429,93
221,617	390,4
222,077	437,34
222,537	313,8
222,996	439,82
223,456	390,4
223,915	395,34
224,375	360,75
224,834	417,58
225,294	459,58
225,753	449,7
226,213	328,63
226,672	385,46
227,131	360,75
227,59	415,11
228,05	424,99
228,509	336,04
228,968	422,52
229,427	340,98
229,886	417,58
230,345	402,75
230,804	397,81
231,263	382,99
231,721	424,99
232,18	390,4
232,639	481,82
233,098	400,28
233,556	378,04
234,015	378,04
234,473	370,63
234,932	447,23
235,39	355,81
235,849	400,28
236,307	380,51
236,765	444,76
237,224	410,17
237,682	462,05
238,14	410,17
238,598	395,34
239,056	467
239,514	365,69
239,972	402,75
240,43	429,93
240,888	427,46
241,346	444,76
241,804	457,11
242,262	368,16
242,72	459,58
243,177	424,99
243,635	407,69
244,093	454,64
244,55	350,86
245,008	439,82
245,465	412,64
245,923	360,75
246,38	467
246,837	410,17
247,295	459,58
247,752	452,17
248,209	464,52
248,666	415,11
249,123	444,76
249,58	405,22
250,037	476,88
250,494	407,69
250,951	511,47
251,408	457,11
251,865	447,23
252,322	370,63
252,779	424,99
253,235	452,17
253,692	380,51
254,149	464,52
254,605	504,06
255,062	496,65
255,518	476,88
255,975	449,7
256,431	368,16
256,887	412,64
257,344	449,7
257,8	405,22
258,256	434,87
258,712	415,11
259,168	457,11
259,625	449,7
260,081	402,75
260,537	422,52
260,992	427,46
261,448	400,28
261,904	449,7
262,36	412,64
262,816	402,75
263,272	345,92
263,727	449,7
264,183	459,58
264,638	457,11
265,094	417,58
265,549	481,82
266,005	395,34
266,46	499,12
266,916	474,41
267,371	489,23
267,826	382,99
268,281	387,93
268,737	434,87
269,192	452,17
269,647	454,64
270,102	447,23
270,557	415,11
271,012	437,34
271,467	442,29
271,921	402,75
272,376	464,52
272,831	452,17
273,286	434,87
273,74	412,64
274,195	442,29
274,649	412,64
275,104	437,34
275,558	422,52
276,013	432,4
276,467	427,46
276,922	417,58
277,376	434,87
277,83	462,05
278,284	402,75
278,739	405,22
279,193	469,47
279,647	402,75
280,101	432,4
280,555	358,28
281,009	521,35
281,462	474,41
281,916	476,88
282,37	412,64
282,824	439,82
283,278	417,58
283,731	467
284,185	420,05
284,638	397,81
285,092	434,87
285,545	429,93
285,999	459,58
286,452	479,35
286,905	395,34
287,359	476,88
287,812	444,76
288,265	494,17
288,718	449,7
289,171	432,4
289,624	459,58
290,077	486,76
290,53	407,69
290,983	459,58
291,436	427,46
291,889	380,51
292,342	489,23
292,794	484,29
293,247	380,51
293,7	444,76
294,152	479,35
294,605	439,82
295,057	392,87
295,51	489,23
295,962	536,18
296,414	434,87
296,867	484,29
297,319	467
297,771	484,29
298,223	380,51
298,675	467
299,128	417,58
299,58	464,52
300,032	457,11
300,483	434,87
300,935	429,93
301,387	380,51
301,839	447,23
302,291	420,05
302,742	412,64
303,194	479,35
303,646	434,87
304,097	464,52
304,549	479,35
305	447,23
305,451	429,93
305,903	427,46
306,354	407,69
306,805	424,99
307,257	449,7
307,708	429,93
308,159	494,17
308,61	449,7
309,061	422,52
309,512	454,64
309,963	439,82
310,414	452,17
310,865	444,76
311,315	457,11
311,766	481,82
312,217	420,05
312,668	501,59
313,118	427,46
313,569	543,59
314,019	387,93
314,47	439,82
314,92	412,64
315,37	405,22
315,821	467
316,271	469,47
316,721	474,41
317,171	437,34
317,622	368,16
318,072	439,82
318,522	449,7
318,972	481,82
319,422	439,82
319,872	459,58
320,321	400,28
320,771	449,7
321,221	476,88
321,671	469,47
322,12	434,87
322,57	464,52
323,019	504,06
323,469	454,64
323,918	504,06
324,368	467
324,817	496,65
325,267	432,4
325,716	427,46
326,165	471,94
326,614	489,23
327,063	459,58
327,512	427,46
327,961	504,06
328,41	447,23
328,859	434,87
329,308	400,28
329,757	380,51
330,206	422,52
330,655	439,82
331,103	387,93
331,552	479,35
332,001	444,76
332,449	452,17
332,898	365,69
333,346	449,7
333,794	479,35
334,243	491,7
334,691	471,94
335,139	457,11
335,588	429,93
336,036	464,52
336,484	412,64
336,932	467
337,38	424,99
337,828	405,22
338,276	476,88
338,724	462,05
339,172	454,64
339,619	417,58
340,067	457,11
340,515	420,05
340,962	447,23
341,41	471,94
341,858	543,59
342,305	494,17
342,753	464,52
343,2	444,76
343,647	422,52
344,095	476,88
344,542	412,64
344,989	447,23
345,436	412,64
345,883	447,23
346,33	375,57
346,777	506,53
347,224	429,93
347,671	447,23
348,118	439,82
348,565	407,69
349,012	420,05
349,458	420,05
349,905	424,99
350,352	494,17
350,798	469,47
351,245	464,52
351,691	415,11
352,138	402,75
352,584	486,76
353,03	439,82
353,477	387,93
353,923	471,94
354,369	378,04
354,815	444,76
355,261	434,87
355,707	444,76
356,153	462,05
356,599	355,81
357,045	476,88
357,491	491,7
357,937	447,23
358,382	476,88
358,828	427,46
359,274	429,93
359,719	422,52
360,165	454,64
360,61	479,35
361,056	469,47
361,501	469,47
361,947	452,17
362,392	412,64
362,837	464,52
363,282	444,76
363,727	474,41
364,173	486,76
364,618	531,24
365,063	486,76
365,508	491,7
365,952	447,23
366,397	459,58
366,842	452,17
367,287	429,93
367,732	462,05
368,176	429,93
368,621	454,64
369,065	378,04
369,51	454,64
369,954	452,17
370,399	518,88
370,843	442,29
371,287	385,46
371,732	462,05
372,176	491,7
372,62	504,06
373,064	467
373,508	506,53
373,952	373,1
374,396	467
374,84	442,29
375,284	444,76
375,728	434,87
376,172	457,11
376,615	390,4
377,059	457,11
377,503	452,17
377,946	462,05
378,39	474,41
378,833	474,41
379,277	405,22
379,72	427,46
380,163	486,76
380,607	496,65
381,05	447,23
381,493	432,4
381,936	350,86
382,379	429,93
382,822	464,52
383,265	474,41
383,708	457,11
384,151	469,47
384,594	464,52
385,037	476,88
385,479	442,29
385,922	415,11
386,365	444,76
386,807	363,22
387,25	434,87
387,692	471,94
388,135	432,4
388,577	496,65
389,019	447,23
389,461	481,82
389,904	462,05
390,346	452,17
390,788	439,82
391,23	533,71
391,672	476,88
392,114	427,46
392,556	437,34
392,998	464,52
393,44	506,53
393,881	345,92
394,323	429,93
394,765	459,58
395,206	442,29
395,648	400,28
396,09	432,4
396,531	410,17
396,972	420,05
397,414	457,11
397,855	420,05
398,296	363,22
398,738	494,17
399,179	439,82
399,62	474,41
400,061	513,94
400,502	462,05
400,943	467
401,384	464,52
401,825	437,34
402,265	462,05
402,706	422,52
403,147	528,77
403,588	481,82
404,028	424,99
404,469	476,88
404,909	407,69
405,35	469,47
405,79	422,52
406,23	432,4
406,671	469,47
407,111	385,46
407,551	420,05
407,991	462,05
408,431	511,47
408,871	449,7
409,311	368,16
409,751	459,58
410,191	402,75
410,631	471,94
411,071	449,7
411,511	523,83
411,95	395,34
412,39	467
412,83	427,46
413,269	479,35
413,709	467
414,148	476,88
414,587	454,64
415,027	405,22
415,466	405,22
415,905	424,99
416,345	410,17
416,784	486,76
417,223	471,94
417,662	481,82
418,101	437,34
418,54	469,47
418,979	424,99
419,417	432,4
419,856	462,05
420,295	385,46
420,734	449,7
421,172	427,46
421,611	427,46
422,049	467
422,488	501,59
422,926	454,64
423,364	439,82
423,803	518,88
424,241	434,87
424,679	501,59
425,117	491,7
425,555	380,51
425,994	484,29
426,432	422,52
426,87	447,23
427,307	392,87
427,745	449,7
428,183	491,7
428,621	437,34
429,058	464,52
429,496	402,75
429,934	449,7
430,371	471,94
430,809	484,29
431,246	422,52
431,684	457,11
432,121	444,76
432,558	511,47
432,995	457,11
433,433	432,4
433,87	390,4
434,307	501,59
434,744	501,59
435,181	464,52
435,618	486,76
436,055	528,77
436,491	457,11
436,928	516,41
437,365	521,35
437,801	504,06
438,238	464,52
438,675	484,29
439,111	518,88
439,548	516,41
439,984	546,06
440,42	546,06
440,857	481,82
441,293	504,06
441,729	499,12
442,165	518,88
442,601	499,12
443,037	546,06
443,473	501,59
443,909	553,48
444,345	499,12
444,781	563,36
445,217	533,71
445,652	511,47
446,088	511,47
446,524	518,88
446,959	541,12
447,395	511,47
447,83	471,94
448,266	506,53
448,701	553,48
449,136	501,59
449,572	600,42
450,007	536,18
450,442	464,52
450,877	521,35
451,312	526,3
451,747	560,89
452,182	602,89
452,617	506,53
453,052	511,47
453,486	573,24
453,921	575,71
454,356	595,48
454,79	528,77
455,225	531,24
455,66	546,06
456,094	533,71
456,528	518,88
456,963	509
457,397	511,47
457,831	454,64
458,265	506,53
458,7	489,23
459,134	474,41
459,568	501,59
460,002	467
460,436	558,42
460,87	509
461,303	565,83
461,737	506,53
462,171	548,53
462,605	459,58
463,038	439,82
463,472	479,35
463,905	474,41
464,339	573,24
464,772	513,94
465,205	479,35
465,639	494,17
466,072	511,47
466,505	536,18
466,938	526,3
467,371	454,64
467,804	506,53
468,237	590,54
468,67	568,3
469,103	464,52
469,536	427,46
469,969	504,06
470,402	491,7
470,834	509
471,267	546,06
471,699	499,12
472,132	457,11
472,564	476,88
472,997	479,35
473,429	533,71
473,861	454,64
474,294	454,64
474,726	424,99
475,158	499,12
475,59	467
476,022	506,53
476,454	442,29
476,886	516,41
477,318	528,77
477,75	513,94
478,181	434,87
478,613	462,05
479,045	494,17
479,476	494,17
479,908	417,58
480,339	447,23
480,771	531,24
481,202	432,4
481,634	486,76
482,065	518,88
482,496	548,53
482,927	452,17
483,358	491,7
483,789	533,71
484,22	449,7
484,651	484,29
485,082	402,75
485,513	511,47
485,944	471,94
486,375	489,23
486,805	457,11
487,236	516,41
487,667	452,17
488,097	570,77
488,527	479,35
488,958	469,47
489,388	533,71
489,819	432,4
490,249	496,65
490,679	484,29
491,109	499,12
491,539	471,94
491,969	541,12
492,399	484,29
492,829	452,17
493,259	523,83
493,689	521,35
494,119	496,65
494,548	565,83
494,978	541,12
495,408	467
495,837	580,66
496,267	583,13
496,696	523,83
497,126	580,66
497,555	533,71
497,984	595,48
498,413	521,35
498,843	536,18
499,272	511,47
499,701	585,6
500,13	578,18
500,559	580,66
500,988	612,78
501,417	635,01
501,845	593,01
502,274	499,12
502,703	536,18
503,131	536,18
503,56	543,59
503,988	541,12
504,417	558,42
504,845	548,53
505,274	593,01
505,702	635,01
506,13	630,07
506,558	548,53
506,987	597,95
507,415	620,19
507,843	647,37
508,271	560,89
508,699	543,59
509,126	602,89
509,554	635,01
509,982	548,53
510,41	551
510,837	585,6
511,265	625,13
511,693	612,78
512,12	667,14
512,547	610,31
512,975	612,78
513,402	642,43
513,829	654,78
514,257	691,84
514,684	615,25
515,111	536,18
515,538	570,77
515,965	602,89
516,392	694,32
516,819	627,6
517,246	647,37
517,672	679,49
518,099	674,55
518,526	632,54
518,952	731,38
519,379	731,38
519,805	674,55
520,232	667,14
520,658	635,01
521,085	644,9
521,511	684,43
521,937	672,08
522,363	607,84
522,789	681,96
523,215	672,08
523,641	716,55
524,067	679,49
524,493	736,32
524,919	664,67
525,345	639,96
525,771	677,02
526,196	669,61
526,622	672,08
527,047	701,73
527,473	684,43
527,898	741,26
528,324	714,08
528,749	719,02
529,174	679,49
529,6	642,43
530,025	748,67
530,45	726,44
530,875	635,01
531,3	748,67
531,725	763,5
532,15	817,86
532,575	677,02
532,999	795,62
533,424	664,67
533,849	741,26
534,273	684,43
534,698	716,55
535,122	726,44
535,547	751,15
535,971	743,73
536,396	770,91
536,82	780,8
537,244	726,44
537,668	837,63
538,092	731,38
538,517	773,38
538,941	788,21
539,364	765,97
539,788	748,67
540,212	778,33
540,636	825,27
541,06	842,57
541,483	761,03
541,907	778,33
542,331	733,85
542,754	879,63
543,178	731,38
543,601	723,97
544,024	822,8
544,448	780,8
544,871	758,56
545,294	822,8
545,717	840,1
546,14	983,41
546,563	990,82
546,986	961,17
547,409	884,57
547,832	882,1
548,255	924,11
548,677	978,47
549,1	869,75
549,522	894,46
549,945	815,39
550,368	948,82
550,79	882,1
551,212	887,04
551,635	1013,06
552,057	1082,24
552,479	1139,07
552,901	1240,38
553,323	1321,92
553,745	1517,12
554,167	1670,31
554,589	1942,11
555,011	2159,54
555,433	2567,24
555,855	2930,46
556,277	3436,99
556,698	4007,76
557,12	4600,77
557,541	5220,96
557,963	6246,37
558,384	7340,97
558,806	8208,24
559,227	9399,21
559,648	10481,45
560,069	12089,99
560,49	13616,99
560,912	14835,13
561,333	16488,14
561,754	18225,17
562,174	19406,25
562,595	21592,97
563,016	23357,18
563,437	24629,68
563,858	26880,64
564,278	28696,73
564,699	30117,49
565,119	31098,42
565,54	33542,12
565,96	34174,66
566,38	35931,45
566,801	37043,35
567,221	37982,28
567,641	38770,49
568,061	39823,08
568,481	41001,69
568,901	41211,71
569,321	41839,32
569,741	41572,46
570,161	41866,49
570,581	41189,48
571,001	41088,17
571,42	40344,44
571,84	39879,91
572,259	38108,29
572,679	36648,01
573,098	35308,79
573,518	33843,57
573,937	31100,9
574,356	29638,14
574,775	27444
575,195	25598,26
575,614	23586,97
576,033	21538,61
576,452	20016,55
576,871	18667,46
577,29	17283,77
577,708	16465,91
578,127	15887,72
578,546	15502,27
578,964	15489,91
579,383	15519,56
579,801	15737
580,22	16431,31
580,638	17004,56
581,057	18146,1
581,475	18936,78
581,893	20038,79
582,311	20972,78
582,73	21536,14
583,148	22754,28
583,566	23559,79
583,984	23582,02
584,401	24118,2
584,819	24646,97
585,237	24392,47
585,655	24182,45
586,072	23619,09
586,49	23127,38
586,908	22462,72
587,325	22176,1
587,742	21326,12
588,16	20604,62
588,577	19374,13
588,994	18939,25
589,412	18277,06
589,829	17189,87
590,246	16967,49
590,663	16683,34
591,08	16381,9
591,497	16026,09
591,914	16154,58
592,33	16221,29
592,747	16468,38
593,164	16974,91
593,58	17271,41
593,997	17666,75
594,413	18121,39
594,83	18610,63
595,246	19495,2
595,663	19643,45
596,079	20325,41
596,495	20582,38
596,911	20906,07
597,327	21244,58
597,743	21012,32
598,159	21239,64
598,575	20646,63
598,991	20424,25
599,407	20063,5
599,823	19932,54
600,238	18939,25
600,654	18420,37
601,07	17978,08
601,485	16903,25
601,901	16033,5
602,316	15650,52
602,731	14610,28
603,147	13859,13
603,562	12991,86
603,977	12532,27
604,392	11845,37
604,807	11489,57
605,222	11217,77
605,637	10659,35
606,052	10162,71
606,467	9789,6
606,882	9280,6
607,296	8981,63
607,711	8648,06
608,125	8480,04
608,54	8455,33
608,954	8265,07
609,369	8225,54
609,783	8433,09
610,197	8522,05
610,612	8564,05
611,026	8993,98
611,44	9033,52
611,854	9404,15
612,268	9700,65
612,682	9572,17
613,096	9693,24
613,51	9559,81
613,923	9463,45
614,337	9068,11
614,751	8672,77
615,164	8492,4
615,578	8371,32
615,991	8173,65
616,405	8005,63
616,818	8064,93
617,231	7921,62
617,645	8121,76
618,058	8368,85
618,471	8438,04
618,884	8739,48
619,297	9038,46
619,71	9292,96
620,123	9604,29
620,536	9851,38
620,948	10432,03
621,361	10891,61
621,774	11504,39
622,186	12015,86
622,599	12574,28
623,011	13041,27
623,424	13043,75
623,836	12939,97
624,248	13028,92
624,661	12384,02
625,073	12038,1
625,485	11778,66
625,897	11420,38
626,309	11257,3
626,721	10884,2
627,133	10488,86
627,545	10612,41
627,956	10703,83
628,368	10978,09
628,78	11138,7
629,191	11484,62
629,603	11897,26
630,014	12505,1
630,426	12584,16
630,837	12860,9
631,248	13152,46
631,66	13705,94
632,071	13906,08
632,482	14583,1
632,893	15077,28
633,304	15657,93
633,715	15855,6
634,126	16493,09
634,536	17029,27
634,947	17780,41
635,358	17923,72
635,769	18541,44
636,179	18711,93
636,59	19008,44
637	19240,7
637,41	19342
637,821	19225,87
638,231	19356,83
638,641	18862,65
639,051	18361,07
639,462	17550,62
639,872	16683,34
640,282	15754,29
640,691	14864,78
641,101	14269,3
641,511	13577,45
641,921	12954,79
642,331	12223,42
642,74	11496,98
643,15	10839,73
643,559	10523,45
643,969	10286,25
644,378	9732,77
644,787	9147,18
645,197	8922,33
645,606	8502,28
646,015	8601,11
646,424	8576,4
646,833	8821,02
647,242	9129,88
647,651	9586,99
648,06	9982,33
648,469	10602,52
648,877	10832,31
649,286	11081,87
649,694	11032,45
650,103	11269,66
650,512	10745,83
650,92	10597,58
651,328	10402,38
651,737	10259,07
652,145	10135,53
652,553	10204,71
652,961	10486,39
653,369	10926,21
653,777	11412,97
654,185	12023,27
654,593	12492,74
655,001	13315,54
655,409	14247,06
655,816	14768,42
656,224	15210,7
656,631	15252,71
657,039	15279,89
657,446	15324,36
657,854	14721,47
658,261	14130,93
658,668	13441,56
659,076	12717,59
659,483	11884,91
659,89	11094,23
660,297	10785,37
660,704	10286,25
661,111	10370,26
661,518	10590,17
661,924	11015,16
662,331	11618,05
662,738	12638,52
663,144	13589,81
663,551	14558,39
663,957	15645,58
664,364	16273,18
664,77	16977,38
665,177	17511,09
665,583	17832,3
665,989	17639,57
666,395	17987,97
666,801	17318,36
667,207	16735,23
667,613	15932,2
668,019	15040,21
668,425	14279,18
668,83	13757,83
669,236	13184,59
669,642	12954,79
670,047	12762,07
670,453	13078,34
670,858	13271,07
671,264	13967,85
671,669	15228
672,074	16169,4
672,48	17315,89
672,885	18326,47
673,29	19658,28
673,695	21074,09
674,1	22477,54
674,505	23693,21
674,909	24318,35
675,314	25086,79
675,719	25731,69
676,124	25232,57
676,528	25711,92
676,933	25430,24
677,337	24985,48
677,742	24011,96
678,146	23307,76
678,55	22232,93
678,955	20861,59
679,359	19883,13
679,763	18160,93
680,167	17310,95
680,571	16337,42
680,975	14788,18
681,379	13933,26
681,782	13293,3
682,186	12270,36
682,59	12144,35
682,993	11865,14
683,397	11709,47
683,8	12178,94
684,204	12764,54
684,607	13621,93
685,011	14538,62
685,414	16033,5
685,817	17394,96
686,22	19366,71
686,623	21165,51
687,026	23530,14
687,429	26141,85
687,832	28580,6
688,235	30727,79
688,638	33846,04
689,04	36398,45
689,443	38844,62
689,845	41523,04
690,248	43880,26
690,65	45666,7
691,053	47660,7
691,455	49491,61
691,857	51631,39
692,26	52439,37
692,662	54122,03
693,064	55451,36
693,466	55733,04
693,868	56402,65
694,27	56941,3
694,671	56590,43
695,073	56869,64
695,475	57257,57
695,877	57227,92
696,278	56444,65
696,68	56560,78
697,081	55379,71
697,483	55466,19
697,884	54225,81
698,285	53566,08
698,686	52641,98
699,087	51191,57
699,489	50121,69
699,89	49046,86
700,291	47477,85
700,691	45691,41
701,092	44208,88
701,493	42251,95
701,894	40275,25
702,294	38350,44
702,695	37174,3
703,096	34634,25
703,496	32608,13
703,896	31303,51
704,297	29022,89
704,697	27505,77
705,097	25840,4
705,497	24036,67
705,897	22331,76
706,297	21017,26
706,697	19418,6
707,097	18146,1
707,497	16789,59
707,897	15690,05
708,297	14469,44
708,696	13651,58
709,096	12559,45
709,495	11551,34
709,895	10871,85
710,294	10261,54
