Data from FLMS187131_13-32-21-031.txt Node
Date: Mon Dec 23 13:32:21 MSK 2024
User: FemtoLab1
Spectrometer: FLMS18713
Trigger mode: 0
Integration Time (sec): 2,800000E-2
Scans to average: 1
Electric dark correction enabled: true
Nonlinearity correction enabled: false
Boxcar width: 0
XAxis mode: Wavelengths
Number of Pixels in Spectrum: 2048
>>>>>Begin Spectral Data<<<<<
190,252	-12,82
190,715	-12,82
191,177	-12,82
191,64	-64,71
192,102	-116,59
192,565	-133,89
193,027	-72,12
193,49	-111,65
193,952	-67,18
194,415	-67,18
194,877	-77,06
195,339	-10,35
195,802	-40
196,264	41,54
196,726	6,95
197,188	-2,93
197,65	63,78
198,112	73,66
198,574	95,9
199,036	147,79
199,498	152,73
199,96	179,91
200,421	209,56
200,883	212,03
201,345	246,62
201,807	288,63
202,268	254,04
202,73	382,52
203,191	427
203,653	380,05
204,114	323,22
204,576	419,59
205,037	439,35
205,498	387,46
205,96	387,46
206,421	483,83
206,882	372,64
207,343	402,29
207,804	382,52
208,265	476,42
208,726	434,41
209,187	419,59
209,648	444,29
210,109	439,35
210,57	436,88
211,031	503,6
211,492	446,76
211,952	464,06
212,413	496,18
212,874	441,82
213,334	483,83
213,795	436,88
214,255	394,88
214,716	481,36
215,176	454,18
215,636	518,42
216,097	451,71
216,557	370,17
217,017	488,77
217,477	419,59
217,938	441,82
218,398	469
218,858	382,52
219,318	446,76
219,778	456,65
220,238	429,47
220,698	441,82
221,157	424,53
221,617	451,71
222,077	417,11
222,537	436,88
222,996	429,47
223,456	404,76
223,915	394,88
224,375	471,47
224,834	441,82
225,294	407,23
225,753	429,47
226,213	345,46
226,672	429,47
227,131	384,99
227,59	496,18
228,05	407,23
228,509	493,71
228,968	407,23
229,427	399,82
229,886	422,06
230,345	407,23
230,804	449,24
231,263	427
231,721	436,88
232,18	469
232,639	417,11
233,098	446,76
233,556	456,65
234,015	427
234,473	367,7
234,932	422,06
235,39	407,23
235,849	427
236,307	412,17
236,765	422,06
237,224	419,59
237,682	476,42
238,14	382,52
238,598	424,53
239,056	454,18
239,514	422,06
239,972	471,47
240,43	424,53
240,888	424,53
241,346	508,54
241,804	464,06
242,262	394,88
242,72	424,53
243,177	444,29
243,635	422,06
244,093	464,06
244,55	473,94
245,008	409,7
245,465	414,64
245,923	414,64
246,38	464,06
246,837	409,7
247,295	481,36
247,752	498,65
248,209	444,29
248,666	439,35
249,123	446,76
249,58	404,76
250,037	501,12
250,494	483,83
250,951	431,94
251,408	446,76
251,865	454,18
252,322	513,48
252,779	478,89
253,235	404,76
253,692	481,36
254,149	464,06
254,605	414,64
255,062	476,42
255,518	483,83
255,975	414,64
256,431	459,12
256,887	478,89
257,344	451,71
257,8	439,35
258,256	459,12
258,712	417,11
259,168	441,82
259,625	414,64
260,081	446,76
260,537	466,53
260,992	481,36
261,448	380,05
261,904	424,53
262,36	451,71
262,816	431,94
263,272	483,83
263,727	461,59
264,183	449,24
264,638	404,76
265,094	508,54
265,549	434,41
266,005	375,11
266,46	441,82
266,916	508,54
267,371	412,17
267,826	434,41
268,281	464,06
268,737	429,47
269,192	427
269,647	548,07
270,102	424,53
270,557	449,24
271,012	481,36
271,467	471,47
271,921	466,53
272,376	414,64
272,831	476,42
273,286	444,29
273,74	434,41
274,195	476,42
274,649	473,94
275,104	496,18
275,558	498,65
276,013	454,18
276,467	535,72
276,922	449,24
277,376	402,29
277,83	501,12
278,284	419,59
278,739	427
279,193	456,65
279,647	439,35
280,101	518,42
280,555	431,94
281,009	387,46
281,462	441,82
281,916	471,47
282,37	441,82
282,824	409,7
283,278	427
283,731	424,53
284,185	483,83
284,638	414,64
285,092	515,95
285,545	441,82
285,999	503,6
286,452	483,83
286,905	394,88
287,359	461,59
287,812	459,12
288,265	444,29
288,718	459,12
289,171	419,59
289,624	464,06
290,077	461,59
290,53	469
290,983	451,71
291,436	446,76
291,889	464,06
292,342	469
292,794	446,76
293,247	389,93
293,7	461,59
294,152	459,12
294,605	456,65
295,057	476,42
295,51	501,12
295,962	444,29
296,414	436,88
296,867	392,41
297,319	501,12
297,771	449,24
298,223	355,34
298,675	456,65
299,128	404,76
299,58	414,64
300,032	436,88
300,483	543,13
300,935	471,47
301,387	528,3
301,839	478,89
302,291	496,18
302,742	493,71
303,194	488,77
303,646	466,53
304,097	501,12
304,549	471,47
305	498,65
305,451	397,35
305,903	486,3
306,354	503,6
306,805	483,83
307,257	511,01
307,708	412,17
308,159	511,01
308,61	478,89
309,061	449,24
309,512	454,18
309,963	523,36
310,414	473,94
310,865	580,19
311,315	461,59
311,766	469
312,217	449,24
312,668	469
313,118	454,18
313,569	414,64
314,019	491,24
314,47	466,53
314,92	540,66
315,37	429,47
315,821	548,07
316,271	498,65
316,721	466,53
317,171	488,77
317,622	451,71
318,072	481,36
318,522	535,72
318,972	486,3
319,422	520,89
319,872	449,24
320,321	498,65
320,771	451,71
321,221	441,82
321,671	508,54
322,12	446,76
322,57	525,83
323,019	478,89
323,469	469
323,918	446,76
324,368	456,65
324,817	501,12
325,267	466,53
325,716	431,94
326,165	446,76
326,614	441,82
327,063	533,25
327,512	456,65
327,961	469
328,41	511,01
328,859	439,35
329,308	464,06
329,757	491,24
330,206	461,59
330,655	503,6
331,103	515,95
331,552	513,48
332,001	439,35
332,449	459,12
332,898	483,83
333,346	471,47
333,794	523,36
334,243	471,47
334,691	486,3
335,139	424,53
335,588	429,47
336,036	459,12
336,484	518,42
336,932	431,94
337,38	483,83
337,828	427
338,276	441,82
338,724	461,59
339,172	498,65
339,619	464,06
340,067	525,83
340,515	434,41
340,962	508,54
341,41	402,29
341,858	508,54
342,305	530,77
342,753	464,06
343,2	496,18
343,647	459,12
344,095	481,36
344,542	459,12
344,989	424,53
345,436	427
345,883	491,24
346,33	478,89
346,777	506,07
347,224	488,77
347,671	471,47
348,118	404,76
348,565	461,59
349,012	550,54
349,458	481,36
349,905	488,77
350,352	498,65
350,798	548,07
351,245	469
351,691	469
352,138	486,3
352,584	461,59
353,03	511,01
353,477	456,65
353,923	471,47
354,369	471,47
354,815	488,77
355,261	459,12
355,707	476,42
356,153	459,12
356,599	503,6
357,045	476,42
357,491	427
357,937	525,83
358,382	476,42
358,828	394,88
359,274	451,71
359,719	515,95
360,165	476,42
360,61	367,7
361,056	523,36
361,501	444,29
361,947	481,36
362,392	486,3
362,837	446,76
363,282	414,64
363,727	523,36
364,173	483,83
364,618	491,24
365,063	496,18
365,508	439,35
365,952	473,94
366,397	488,77
366,842	444,29
367,287	441,82
367,732	446,76
368,176	464,06
368,621	446,76
369,065	449,24
369,51	454,18
369,954	496,18
370,399	439,35
370,843	476,42
371,287	525,83
371,732	528,3
372,176	545,6
372,62	486,3
373,064	491,24
373,508	476,42
373,952	496,18
374,396	501,12
374,84	446,76
375,284	449,24
375,728	461,59
376,172	461,59
376,615	478,89
377,059	441,82
377,503	441,82
377,946	473,94
378,39	469
378,833	520,89
379,277	553,01
379,72	424,53
380,163	592,55
380,607	427
381,05	444,29
381,493	473,94
381,936	493,71
382,379	483,83
382,822	476,42
383,265	404,76
383,708	503,6
384,151	434,41
384,594	454,18
385,037	471,47
385,479	483,83
385,922	469
386,365	483,83
386,807	513,48
387,25	523,36
387,692	498,65
388,135	506,07
388,577	483,83
389,019	434,41
389,461	469
389,904	501,12
390,346	486,3
390,788	454,18
391,23	404,76
391,672	486,3
392,114	464,06
392,556	446,76
392,998	473,94
393,44	562,9
393,881	446,76
394,323	513,48
394,765	501,12
395,206	543,13
395,648	409,7
396,09	441,82
396,531	464,06
396,972	478,89
397,414	469
397,855	456,65
398,296	414,64
398,738	488,77
399,179	451,71
399,62	471,47
400,061	545,6
400,502	528,3
400,943	481,36
401,384	493,71
401,825	503,6
402,265	486,3
402,706	407,23
403,147	473,94
403,588	503,6
404,028	493,71
404,469	422,06
404,909	506,07
405,35	617,26
405,79	553,01
406,23	473,94
406,671	473,94
407,111	466,53
407,551	476,42
407,991	528,3
408,431	434,41
408,871	478,89
409,311	511,01
409,751	451,71
410,191	456,65
410,631	473,94
411,071	496,18
411,511	557,95
411,95	409,7
412,39	525,83
412,83	493,71
413,269	545,6
413,709	535,72
414,148	461,59
414,587	506,07
415,027	449,24
415,466	520,89
415,905	456,65
416,345	498,65
416,784	446,76
417,223	486,3
417,662	508,54
418,101	466,53
418,54	441,82
418,979	486,3
419,417	501,12
419,856	431,94
420,295	511,01
420,734	577,72
421,172	570,31
421,611	469
422,049	464,06
422,488	538,19
422,926	481,36
423,364	483,83
423,803	511,01
424,241	464,06
424,679	481,36
425,117	464,06
425,555	523,36
425,994	493,71
426,432	478,89
426,87	424,53
427,307	493,71
427,745	414,64
428,183	508,54
428,621	481,36
429,058	488,77
429,496	483,83
429,934	567,84
430,371	515,95
430,809	473,94
431,246	535,72
431,684	528,3
432,121	525,83
432,558	486,3
432,995	454,18
433,433	486,3
433,87	481,36
434,307	520,89
434,744	461,59
435,181	473,94
435,618	511,01
436,055	538,19
436,491	533,25
436,928	503,6
437,365	498,65
437,801	538,19
438,238	511,01
438,675	528,3
439,111	508,54
439,548	515,95
439,984	501,12
440,42	553,01
440,857	511,01
441,293	530,77
441,729	545,6
442,165	612,31
442,601	528,3
443,037	513,48
443,473	557,95
443,909	491,24
444,345	498,65
444,781	441,82
445,217	483,83
445,652	565,37
446,088	503,6
446,524	471,47
446,959	503,6
447,395	528,3
447,83	550,54
448,266	503,6
448,701	503,6
449,136	548,07
449,572	555,48
450,007	469
450,442	518,42
450,877	513,48
451,312	436,88
451,747	501,12
452,182	496,18
452,617	525,83
453,052	518,42
453,486	585,13
453,921	518,42
454,356	515,95
454,79	511,01
455,225	540,66
455,66	530,77
456,094	501,12
456,528	466,53
456,963	607,37
457,397	543,13
457,831	493,71
458,265	528,3
458,7	506,07
459,134	506,07
459,568	548,07
460,002	553,01
460,436	525,83
460,87	501,12
461,303	535,72
461,737	486,3
462,171	473,94
462,605	525,83
463,038	523,36
463,472	491,24
463,905	520,89
464,339	508,54
464,772	496,18
465,205	488,77
465,639	473,94
466,072	548,07
466,505	525,83
466,938	471,47
467,371	545,6
467,804	523,36
468,237	456,65
468,67	515,95
469,103	404,76
469,536	506,07
469,969	493,71
470,402	515,95
470,834	545,6
471,267	464,06
471,699	501,12
472,132	503,6
472,564	496,18
472,997	491,24
473,429	449,24
473,861	538,19
474,294	469
474,726	506,07
475,158	488,77
475,59	580,19
476,022	540,66
476,454	530,77
476,886	530,77
477,318	545,6
477,75	429,47
478,181	513,48
478,613	483,83
479,045	533,25
479,476	486,3
479,908	506,07
480,339	464,06
480,771	523,36
481,202	508,54
481,634	565,37
482,065	535,72
482,496	464,06
482,927	528,3
483,358	570,31
483,789	525,83
484,22	501,12
484,651	572,78
485,082	496,18
485,513	459,12
485,944	545,6
486,375	493,71
486,805	587,6
487,236	614,78
487,667	580,19
488,097	506,07
488,527	567,84
488,958	604,9
489,388	595,02
489,819	641,96
490,249	703,74
490,679	708,68
491,109	674,09
491,539	713,62
491,969	775,39
492,399	797,63
492,829	844,58
493,259	921,17
493,689	950,82
494,119	916,23
494,548	1146,02
494,978	1188,03
495,408	1257,21
495,837	1286,86
496,267	1432,64
496,696	1580,9
497,126	1746,44
497,555	1924,35
497,984	2033,07
498,413	2267,8
498,843	2440,76
499,272	2633,49
499,701	2925,05
500,13	3167,2
500,559	3481
500,988	3784,92
501,417	4014,71
501,845	4363,1
502,274	4780,68
502,703	5017,88
503,131	5529,35
503,56	5951,87
503,988	6455,93
504,417	6957,52
504,845	7545,59
505,274	8047,17
505,702	8482,05
506,13	9015,76
506,558	9710,07
506,987	10434,04
507,415	10789,84
507,843	11456,98
508,271	12203,19
508,699	13058,11
509,126	13653,59
509,554	14464,04
509,982	15059,52
510,41	16168,94
510,837	16986,8
511,265	17560,04
511,693	18429,79
512,12	19069,74
512,547	20300,24
512,975	21234,23
513,402	22202,81
513,829	23102,21
514,257	23855,83
514,684	24728,05
515,111	26173,51
515,538	27315,05
515,965	28165,03
516,392	29091,61
516,819	30139,26
517,246	31268,45
517,672	32417,41
518,099	33381,05
518,526	34539,89
518,952	35562,83
519,379	36622,84
519,805	37769,32
520,232	38606,95
520,658	39701,55
521,085	40647,89
521,511	41937,69
521,937	43029,81
522,363	43894,62
522,789	44722,36
523,215	45676,12
523,641	46227,12
524,067	47781,3
524,493	48218,65
524,919	49031,57
525,345	49888,96
525,771	50304,07
526,196	51208,41
526,622	52391,96
527,047	52396,9
527,473	52757,65
527,898	53518,67
528,324	53491,5
528,749	54210,52
529,174	54618,21
529,6	54694,81
530,025	54877,66
530,45	55349,59
530,875	55584,33
531,3	55660,92
531,725	55381,71
532,15	55725,17
532,575	55438,54
532,999	55752,35
533,424	55223,58
533,849	55616,45
534,273	55310,06
534,698	55132,16
535,122	54862,83
535,547	55132,16
535,971	54188,28
536,396	54035,09
536,82	53451,96
537,244	53607,63
537,668	53535,97
538,092	52322,77
538,517	52631,63
538,941	51920,02
539,364	51467,85
539,788	51729,76
540,212	51571,63
540,636	50556,1
541,06	50313,95
541,483	49716
541,907	49431,85
542,331	49115,58
542,754	49009,33
543,178	48705,41
543,601	48589,28
544,024	48347,13
544,448	47709,65
544,871	47222,89
545,294	47128,99
545,717	46830,02
546,14	46412,44
546,563	45984,98
546,986	45508,1
547,409	45199,24
547,832	44724,83
548,255	44203,48
548,677	44223,25
549,1	44191,12
549,522	43439,98
549,945	43395,5
550,368	42842,03
550,79	42975,45
551,212	42466,45
551,635	41917,92
552,057	41307,61
552,479	41574,47
552,901	41389,15
553,323	40630,59
553,745	41058,06
554,167	40455,16
554,589	40198,19
555,011	40087
555,433	39839,91
555,855	39249,38
556,277	39323,5
556,698	38824,39
557,12	38560
557,541	38456,22
557,963	38226,43
558,384	38219,02
558,806	37376,45
559,227	37401,16
559,648	36869,92
560,069	36479,53
560,49	36074,3
560,912	36049,59
561,333	35716,03
561,754	34446
562,174	34517,65
562,595	33885,11
563,016	33660,26
563,437	32946,18
563,858	32983,24
564,278	32716,38
564,699	31648,97
565,119	31172,09
565,54	31278,33
565,96	30542,01
566,38	30309,75
566,801	29894,65
567,221	29556,14
567,641	28982,89
568,061	28451,65
568,481	28795,11
568,901	28093,38
569,321	27601,67
569,741	27250,81
570,161	26961,72
570,581	26761,58
571,001	26410,71
571,42	26003,02
571,84	25669,45
572,259	25434,72
572,679	25360,59
573,098	25160,45
573,518	25069,03
573,937	24676,16
574,356	24611,92
574,775	24051,03
575,195	24115,27
575,614	23628,51
576,033	23719,93
576,452	23411,07
576,871	23416,01
577,29	22701,93
577,708	22593,21
578,127	22573,44
578,546	22237,41
578,964	21918,66
579,383	21708,64
579,801	21772,88
580,22	21506,03
580,638	21377,54
581,057	21471,43
581,475	20702,99
581,893	20982,2
582,311	20433,67
582,73	20468,26
583,148	20357,07
583,566	20423,78
583,984	20181,64
584,401	20021,03
584,819	20245,88
585,237	19949,38
585,655	20060,57
586,072	20156,93
586,49	19924,67
586,908	20001,26
587,325	19917,25
587,742	19766,53
588,16	20100,1
588,577	19811,01
588,994	19934,55
589,412	20218,7
589,829	19880,19
590,246	20127,28
590,663	20436,14
591,08	20399,08
591,497	20448,49
591,914	20614,04
592,33	20455,91
592,747	21169,99
593,164	21298,47
593,58	21585,09
593,997	21506,03
594,413	22123,75
594,83	22029,85
595,246	22257,17
595,663	22785,94
596,079	23186,22
596,495	23094,8
596,911	23986,78
597,327	23690,28
597,743	24389,54
598,159	24194,34
598,575	24817
598,991	25153,04
599,407	25078,91
599,823	25123,39
600,238	25573,09
600,654	25741,11
601,07	26180,92
601,485	26346,47
601,901	26250,11
602,316	26524,37
602,731	26484,84
603,147	26645,45
603,562	26907,36
603,977	27060,55
604,392	26783,81
604,807	27119,85
605,222	27950,07
605,637	27710,39
606,052	28132,91
606,467	28207,04
606,882	28029,14
607,296	27989,6
607,711	28987,83
608,125	28372,59
608,54	28913,71
608,954	29225,04
609,369	29388,12
609,783	29304,11
610,197	29304,11
610,612	30018,19
611,026	29625,32
611,44	30181,27
611,854	30272,69
612,268	30134,32
612,682	30640,85
613,096	30991,71
613,51	30845,93
613,923	30811,34
614,337	31241,27
614,751	31139,97
615,164	31167,15
615,578	31774,98
615,991	31495,77
616,405	31898,52
616,818	31863,93
617,231	32148,08
617,645	32017,13
618,058	32377,87
618,471	32054,19
618,884	32580,49
619,297	32753,45
619,71	32128,32
620,123	32906,64
620,536	32810,28
620,948	32914,05
621,361	32965,94
621,774	33479,88
622,186	33373,64
622,599	33445,29
623,011	33541,66
623,424	33531,77
623,836	33413,17
624,248	33395,87
624,661	33277,27
625,073	33376,11
625,485	33623,19
625,897	33662,73
626,309	33356,34
626,721	33939,47
627,133	33929,58
627,545	34092,66
627,956	33652,85
628,368	33969,12
628,78	34191,5
629,191	33801,1
629,603	33818,39
630,014	33904,87
630,426	33761,56
630,837	34189,02
631,248	33588,6
631,66	33479,88
632,071	33250,09
632,482	33919,7
632,893	33699,79
633,304	33274,8
633,715	33531,77
634,126	33007,95
634,536	33178,44
634,947	32723,8
635,358	32565,66
635,769	32476,71
636,179	32407,52
636,59	32649,67
637	32031,95
637,41	31873,82
637,821	31824,4
638,231	31765,1
638,641	31574,84
639,051	31705,8
639,462	31181,97
639,872	31394,47
640,282	31290,69
640,691	31404,35
641,101	31093,02
641,511	30880,52
641,921	30769,33
642,331	30850,87
642,74	30487,66
643,15	30480,24
643,559	30230,68
643,969	29825,46
644,378	30418,47
644,787	29956,42
645,197	29887,23
645,606	30079,96
646,015	29620,38
646,424	29827,93
646,833	29981,13
647,242	29877,35
647,651	29410,35
648,06	29827,93
648,469	29333,76
648,877	29355,99
649,286	28800,05
649,694	28557,9
650,103	29091,61
650,512	28172,45
650,92	28056,31
651,328	27905,59
651,737	27843,82
652,145	27151,97
652,553	27072,91
652,961	26675,1
653,369	26662,74
653,777	25921,48
654,185	25773,23
654,593	25254,34
655,001	24975,13
655,409	24332,71
655,816	24085,62
656,224	23887,95
656,631	23598,86
657,039	23220,81
657,446	22444,96
657,854	22370,83
658,261	22089,15
658,668	21678,99
659,076	21414,6
659,483	20838,89
659,89	20431,2
660,297	20112,45
660,704	19615,81
661,111	19603,45
661,518	19694,88
661,924	19205,64
662,331	18506,39
662,738	18674,4
663,144	18212,35
663,551	17952,91
663,957	17876,31
664,364	17718,18
664,77	17219,06
665,177	17384,61
665,583	16957,15
665,989	16984,33
666,395	16860,78
666,801	16744,65
667,207	16519,8
667,613	16569,22
668,019	16151,64
668,425	16282,6
668,83	16433,32
669,236	15682,18
669,642	15835,37
670,047	15711,83
670,453	15800,78
670,858	15580,87
671,264	15309,07
671,669	15242,36
672,074	15314,02
672,48	15269,54
672,885	15272,01
673,29	14785,25
673,695	14851,96
674,1	14851,96
674,505	15032,34
674,909	14772,89
675,314	14696,3
675,719	14552,99
676,124	14360,26
676,528	14345,43
676,933	14172,47
677,337	14459,09
677,742	14323,2
678,146	14118,11
678,55	14090,93
678,955	14093,4
679,359	13984,69
679,763	13932,8
680,167	13913,03
680,571	13673,36
680,975	13707,95
681,379	13628,88
681,782	13678,3
682,186	13278,02
682,59	13231,07
682,993	13139,65
683,397	13065,52
683,8	12857,97
684,204	12974,1
684,607	12764,07
685,011	12657,83
685,414	12358,85
685,817	12368,73
686,22	12087,05
686,623	12015,4
687,026	11835,02
687,429	11807,85
687,832	11634,88
688,235	11301,32
688,638	11118,47
689,04	11254,37
689,443	10797,26
689,845	10592,17
690,248	10562,52
690,65	10263,55
691,053	10253,67
691,455	9959,63
691,857	9729,84
692,26	9611,24
692,662	9168,95
693,064	9351,8
693,466	9087,41
693,868	8971,28
694,27	8798,32
694,671	8548,76
695,073	8556,17
695,475	8393,1
695,877	8390,63
696,278	8210,25
696,68	7931,04
697,081	7718,55
697,483	7795,15
697,884	7496,17
698,285	7372,63
698,686	7389,92
699,087	7510,99
699,489	6997,05
699,89	7167,54
700,291	7086
700,691	7155,19
701,092	6848,8
701,493	6819,15
701,894	6767,26
702,294	6690,66
702,695	6552,3
703,096	6680,78
703,496	6606,65
703,896	6611,6
704,297	6542,41
704,697	6433,69
705,097	6285,44
