Data from FLMS187131_14-04-45-268.txt Node
Date: Mon Dec 23 14:04:45 MSK 2024
User: FemtoLab1
Spectrometer: FLMS18713
Trigger mode: 0
Integration Time (sec): 2,139000E-2
Scans to average: 1
Electric dark correction enabled: true
Nonlinearity correction enabled: false
Boxcar width: 0
XAxis mode: Wavelengths
Number of Pixels in Spectrum: 2048
>>>>>Begin Spectral Data<<<<<
190,252	-20,38
190,715	-20,38
191,177	-20,38
191,64	-79,69
192,102	-50,04
192,565	-74,74
193,027	-74,74
193,49	-87,1
193,952	-64,86
194,415	-109,34
194,877	-17,91
195,339	-47,56
195,802	19,15
196,264	16,68
196,726	48,8
197,188	24,09
197,65	48,8
198,112	58,68
198,574	105,63
199,036	38,92
199,498	115,51
199,96	177,29
200,421	201,99
200,883	224,23
201,345	276,12
201,807	184,7
202,268	211,88
202,73	342,83
203,191	229,17
203,653	300,83
204,114	342,83
204,576	278,59
205,037	313,18
205,498	315,65
205,96	332,95
206,421	347,78
206,882	389,78
207,343	387,31
207,804	365,07
208,265	382,37
208,726	488,62
209,187	402,13
209,648	394,72
210,109	434,26
210,57	397,19
211,031	421,9
211,492	421,9
211,952	429,31
212,413	399,66
212,874	434,26
213,334	377,43
213,795	402,13
214,255	402,13
214,716	392,25
215,176	449,08
215,636	355,19
216,097	347,78
216,557	466,38
217,017	387,31
217,477	407,08
217,938	419,43
218,398	419,43
218,858	424,37
219,318	394,72
219,778	463,91
220,238	337,89
220,698	397,19
221,157	404,61
221,617	365,07
222,077	434,26
222,537	389,78
222,996	384,84
223,456	325,54
223,915	379,9
224,375	365,07
224,834	426,84
225,294	399,66
225,753	355,19
226,213	377,43
226,672	374,96
227,131	350,25
227,59	352,72
228,05	374,96
228,509	414,49
228,968	399,66
229,427	397,19
229,886	377,43
230,345	379,9
230,804	389,78
231,263	392,25
231,721	379,9
232,18	379,9
232,639	407,08
233,098	362,6
233,556	431,79
234,015	412,02
234,473	421,9
234,932	439,2
235,39	392,25
235,849	392,25
236,307	412,02
236,765	436,73
237,224	328,01
237,682	387,31
238,14	352,72
238,598	377,43
239,056	379,9
239,514	449,08
239,972	379,9
240,43	392,25
240,888	374,96
241,346	357,66
241,804	481,2
242,262	421,9
242,72	407,08
243,177	389,78
243,635	429,31
244,093	426,84
244,55	372,48
245,008	360,13
245,465	392,25
245,923	412,02
246,38	429,31
246,837	416,96
247,295	367,54
247,752	407,08
248,209	416,96
248,666	362,6
249,123	394,72
249,58	439,2
250,037	365,07
250,494	429,31
250,951	456,49
251,408	424,37
251,865	412,02
252,322	424,37
252,779	402,13
253,235	468,85
253,692	439,2
254,149	441,67
254,605	449,08
255,062	412,02
255,518	407,08
255,975	332,95
256,431	412,02
256,887	387,31
257,344	397,19
257,8	473,79
258,256	481,2
258,712	387,31
259,168	458,96
259,625	384,84
260,081	454,02
260,537	387,31
260,992	424,37
261,448	392,25
261,904	379,9
262,36	389,78
262,816	394,72
263,272	409,55
263,727	377,43
264,183	451,55
264,638	491,09
265,094	370,01
265,549	407,08
266,005	379,9
266,46	412,02
266,916	441,67
267,371	426,84
267,826	374,96
268,281	416,96
268,737	471,32
269,192	446,61
269,647	434,26
270,102	439,2
270,557	503,44
271,012	382,37
271,467	454,02
271,921	414,49
272,376	436,73
272,831	404,61
273,286	402,13
273,74	414,49
274,195	374,96
274,649	429,31
275,104	434,26
275,558	436,73
276,013	488,62
276,467	419,43
276,922	446,61
277,376	414,49
277,83	493,56
278,284	496,03
278,739	397,19
279,193	419,43
279,647	409,55
280,101	449,08
280,555	389,78
281,009	355,19
281,462	466,38
281,916	461,44
282,37	426,84
282,824	481,2
283,278	454,02
283,731	389,78
284,185	441,67
284,638	478,73
285,092	402,13
285,545	419,43
285,999	382,37
286,452	416,96
286,905	461,44
287,359	426,84
287,812	456,49
288,265	491,09
288,718	379,9
289,171	397,19
289,624	404,61
290,077	424,37
290,53	421,9
290,983	377,43
291,436	374,96
291,889	488,62
292,342	439,2
292,794	486,14
293,247	424,37
293,7	454,02
294,152	382,37
294,605	446,61
295,057	399,66
295,51	429,31
295,962	468,85
296,414	416,96
296,867	488,62
297,319	407,08
297,771	382,37
298,223	402,13
298,675	335,42
299,128	481,2
299,58	414,49
300,032	426,84
300,483	397,19
300,935	389,78
301,387	412,02
301,839	449,08
302,291	424,37
302,742	449,08
303,194	446,61
303,646	456,49
304,097	466,38
304,549	488,62
305	416,96
305,451	478,73
305,903	493,56
306,354	434,26
306,805	392,25
307,257	503,44
307,708	407,08
308,159	458,96
308,61	478,73
309,061	402,13
309,512	414,49
309,963	449,08
310,414	476,26
310,865	426,84
311,315	446,61
311,766	394,72
312,217	407,08
312,668	399,66
313,118	414,49
313,569	458,96
314,019	483,67
314,47	424,37
314,92	471,32
315,37	444,14
315,821	416,96
316,271	409,55
316,721	419,43
317,171	451,55
317,622	429,31
318,072	468,85
318,522	436,73
318,972	426,84
319,422	496,03
319,872	372,48
320,321	426,84
320,771	389,78
321,221	434,26
321,671	449,08
322,12	441,67
322,57	414,49
323,019	431,79
323,469	434,26
323,918	426,84
324,368	431,79
324,817	370,01
325,267	500,97
325,716	409,55
326,165	478,73
326,614	416,96
327,063	446,61
327,512	412,02
327,961	412,02
328,41	416,96
328,859	394,72
329,308	404,61
329,757	397,19
330,206	372,48
330,655	434,26
331,103	513,32
331,552	434,26
332,001	439,2
332,449	471,32
332,898	389,78
333,346	454,02
333,794	439,2
334,243	421,9
334,691	416,96
335,139	466,38
335,588	370,01
336,036	362,6
336,484	456,49
336,932	463,91
337,38	429,31
337,828	466,38
338,276	421,9
338,724	404,61
339,172	454,02
339,619	431,79
340,067	473,79
340,515	441,67
340,962	439,2
341,41	454,02
341,858	456,49
342,305	434,26
342,753	416,96
343,2	416,96
343,647	458,96
344,095	458,96
344,542	389,78
344,989	394,72
345,436	399,66
345,883	426,84
346,33	412,02
346,777	456,49
347,224	439,2
347,671	441,67
348,118	444,14
348,565	436,73
349,012	429,31
349,458	471,32
349,905	481,2
350,352	404,61
350,798	449,08
351,245	441,67
351,691	397,19
352,138	328,01
352,584	429,31
353,03	431,79
353,477	377,43
353,923	434,26
354,369	444,14
354,815	456,49
355,261	461,44
355,707	463,91
356,153	444,14
356,599	394,72
357,045	404,61
357,491	451,55
357,937	370,01
358,382	394,72
358,828	379,9
359,274	434,26
359,719	436,73
360,165	426,84
360,61	419,43
361,056	500,97
361,501	439,2
361,947	463,91
362,392	429,31
362,837	357,66
363,282	441,67
363,727	456,49
364,173	454,02
364,618	372,48
365,063	454,02
365,508	412,02
365,952	439,2
366,397	414,49
366,842	441,67
367,287	454,02
367,732	466,38
368,176	471,32
368,621	439,2
369,065	436,73
369,51	389,78
369,954	424,37
370,399	426,84
370,843	436,73
371,287	473,79
371,732	496,03
372,176	449,08
372,62	355,19
373,064	404,61
373,508	394,72
373,952	419,43
374,396	441,67
374,84	458,96
375,284	454,02
375,728	429,31
376,172	431,79
376,615	431,79
377,059	476,26
377,503	389,78
377,946	402,13
378,39	387,31
378,833	461,44
379,277	409,55
379,72	436,73
380,163	441,67
380,607	493,56
381,05	441,67
381,493	362,6
381,936	434,26
382,379	471,32
382,822	409,55
383,265	387,31
383,708	466,38
384,151	434,26
384,594	337,89
385,037	456,49
385,479	468,85
385,922	468,85
386,365	444,14
386,807	454,02
387,25	399,66
387,692	451,55
388,135	402,13
388,577	449,08
389,019	458,96
389,461	491,09
389,904	412,02
390,346	387,31
390,788	476,26
391,23	412,02
391,672	500,97
392,114	421,9
392,556	429,31
392,998	478,73
393,44	446,61
393,881	397,19
394,323	461,44
394,765	402,13
395,206	456,49
395,648	444,14
396,09	478,73
396,531	476,26
396,972	412,02
397,414	384,84
397,855	414,49
398,296	481,2
398,738	399,66
399,179	451,55
399,62	449,08
400,061	414,49
400,502	496,03
400,943	500,97
401,384	367,54
401,825	426,84
402,265	468,85
402,706	399,66
403,147	446,61
403,588	483,67
404,028	488,62
404,469	466,38
404,909	402,13
405,35	424,37
405,79	429,31
406,23	402,13
406,671	355,19
407,111	505,91
407,551	449,08
407,991	461,44
408,431	397,19
408,871	454,02
409,311	379,9
409,751	416,96
410,191	387,31
410,631	379,9
411,071	439,2
411,511	412,02
411,95	449,08
412,39	473,79
412,83	461,44
413,269	456,49
413,709	431,79
414,148	313,18
414,587	404,61
415,027	397,19
415,466	404,61
415,905	382,37
416,345	481,2
416,784	454,02
417,223	419,43
417,662	444,14
418,101	471,32
418,54	496,03
418,979	409,55
419,417	461,44
419,856	439,2
420,295	441,67
420,734	414,49
421,172	446,61
421,611	461,44
422,049	377,43
422,488	412,02
422,926	434,26
423,364	454,02
423,803	471,32
424,241	449,08
424,679	397,19
425,117	394,72
425,555	404,61
425,994	476,26
426,432	402,13
426,87	508,38
427,307	434,26
427,745	493,56
428,183	434,26
428,621	466,38
429,058	402,13
429,496	424,37
429,934	379,9
430,371	434,26
430,809	473,79
431,246	471,32
431,684	478,73
432,121	407,08
432,558	414,49
432,995	439,2
433,433	461,44
433,87	436,73
434,307	458,96
434,744	473,79
435,181	466,38
435,618	431,79
436,055	552,86
436,491	496,03
436,928	498,5
437,365	473,79
437,801	456,49
438,238	498,5
438,675	493,56
439,111	421,9
439,548	483,67
439,984	473,79
440,42	481,2
440,857	498,5
441,293	466,38
441,729	458,96
442,165	454,02
442,601	412,02
443,037	466,38
443,473	488,62
443,909	431,79
444,345	394,72
444,781	471,32
445,217	379,9
445,652	471,32
446,088	421,9
446,524	439,2
446,959	510,85
447,395	491,09
447,83	481,2
448,266	491,09
448,701	426,84
449,136	496,03
449,572	491,09
450,007	471,32
450,442	466,38
450,877	409,55
451,312	478,73
451,747	496,03
452,182	466,38
452,617	533,09
453,052	436,73
453,486	471,32
453,921	468,85
454,356	508,38
454,79	429,31
455,225	463,91
455,66	461,44
456,094	500,97
456,528	550,39
456,963	461,44
457,397	449,08
457,831	520,74
458,265	436,73
458,7	466,38
459,134	431,79
459,568	515,8
460,002	491,09
460,436	419,43
460,87	449,08
461,303	500,97
461,737	473,79
462,171	446,61
462,605	441,67
463,038	486,14
463,472	476,26
463,905	513,32
464,339	449,08
464,772	426,84
465,205	449,08
465,639	488,62
466,072	454,02
466,505	421,9
466,938	399,66
467,371	412,02
467,804	456,49
468,237	503,44
468,67	471,32
469,103	431,79
469,536	446,61
469,969	468,85
470,402	424,37
470,834	491,09
471,267	505,91
471,699	444,14
472,132	431,79
472,564	419,43
472,997	441,67
473,429	444,14
473,861	424,37
474,294	461,44
474,726	476,26
475,158	471,32
475,59	458,96
476,022	439,2
476,454	461,44
476,886	424,37
477,318	466,38
477,75	456,49
478,181	431,79
478,613	555,33
479,045	399,66
479,476	538,03
479,908	473,79
480,339	426,84
480,771	493,56
481,202	471,32
481,634	481,2
482,065	454,02
482,496	434,26
482,927	404,61
483,358	496,03
483,789	471,32
484,22	379,9
484,651	414,49
485,082	439,2
485,513	463,91
485,944	451,55
486,375	466,38
486,805	503,44
487,236	466,38
487,667	444,14
488,097	421,9
488,527	463,91
488,958	547,92
489,388	458,96
489,819	483,67
490,249	456,49
490,679	463,91
491,109	436,73
491,539	441,67
491,969	473,79
492,399	444,14
492,829	379,9
493,259	404,61
493,689	416,96
494,119	458,96
494,548	449,08
494,978	505,91
495,408	365,07
495,837	444,14
496,267	402,13
496,696	525,68
497,126	498,5
497,555	444,14
497,984	468,85
498,413	456,49
498,843	488,62
499,272	491,09
499,701	454,02
500,13	466,38
500,559	488,62
500,988	525,68
501,417	471,32
501,845	488,62
502,274	468,85
502,703	451,55
503,131	458,96
503,56	471,32
503,988	456,49
504,417	500,97
504,845	496,03
505,274	545,45
505,702	535,56
506,13	488,62
506,558	436,73
506,987	483,67
507,415	523,21
507,843	542,97
508,271	505,91
508,699	468,85
509,126	518,27
509,554	503,44
509,982	449,08
510,41	508,38
510,837	575,1
511,265	491,09
511,693	542,97
512,12	520,74
512,547	570,15
512,975	528,15
513,402	604,75
513,829	547,92
514,257	496,03
514,684	589,92
515,111	535,56
515,538	542,97
515,965	560,27
516,392	567,68
516,819	624,51
517,246	617,1
517,672	518,27
518,099	644,28
518,526	644,28
518,952	567,68
519,379	619,57
519,805	639,34
520,232	656,63
520,658	646,75
521,085	713,46
521,511	743,12
521,937	718,41
522,363	812,3
522,789	753
523,215	795
523,641	849,36
524,067	901,25
524,493	1066,8
524,919	1081,63
525,345	1074,21
525,771	1145,87
526,196	1299,06
526,622	1427,55
527,047	1449,79
527,473	1607,92
527,898	1620,28
528,324	1825,36
528,749	1988,44
529,174	2087,27
529,6	2181,16
530,025	2356,6
530,45	2571,56
530,875	2905,13
531,3	3167,04
531,725	3327,65
532,15	3634,04
532,575	3878,65
532,999	4412,36
533,424	4553,2
533,849	5269,76
534,273	5477,31
534,698	5971,49
535,122	6608,97
535,547	7192,1
535,971	7891,35
536,396	8706,74
536,82	9452,95
537,244	10359,76
537,668	11264,1
538,092	12494,59
538,517	13356,93
538,941	14486,12
539,364	15684,49
539,788	16680,25
540,212	17997,23
540,636	18983,11
541,06	19996,17
541,483	20942,51
541,907	22254,55
542,331	22785,79
542,754	23737,07
543,178	24540,11
543,601	25162,77
544,024	25738,48
544,448	26479,74
544,871	27013,45
545,294	27712,71
545,717	29007,45
546,14	29911,79
546,563	30588,81
546,986	31656,22
547,409	32812,59
547,832	33494,55
548,255	34272,88
548,677	34991,9
549,1	36059,32
549,522	36805,53
549,945	37714,81
550,368	38290,52
550,79	38868,71
551,212	39056,49
551,635	40047,31
552,057	40195,57
552,479	40699,62
552,901	41275,34
553,323	41364,29
553,745	41524,9
554,167	41633,61
554,589	41208,62
555,011	41366,76
555,433	41431
555,855	40914,59
556,277	40558,78
556,698	39753,28
557,12	39718,69
557,541	38703,16
557,963	38171,92
558,384	37588,79
558,806	37161,33
559,227	36689,4
559,648	36538,67
560,069	35164,87
560,49	34957,31
560,912	34517,5
561,333	34166,63
561,754	32970,73
562,174	32639,63
562,595	32155,34
563,016	31609,28
563,437	30737,06
563,858	30450,44
564,278	29756,12
564,699	28683,76
565,119	27984,51
565,54	26897,32
565,96	26264,78
566,38	25624,82
566,801	24342,44
567,221	23895,21
567,641	22724,01
568,061	21740,61
568,481	21226,66
568,901	20057,94
569,321	19467,4
569,741	18624,83
570,161	17683,43
570,581	17095,36
571,001	16571,54
571,42	16037,83
571,84	15311,39
572,259	14948,17
572,679	14273,62
573,098	13947,47
573,518	13384,11
573,937	12892,4
574,356	12445,18
574,775	12279,63
575,195	11780,51
575,614	11548,25
576,033	11130,67
576,452	10836,64
576,871	10181,86
577,29	10080,55
577,708	9801,34
578,127	9279,99
578,546	9287,4
578,964	9097,14
579,383	8746,28
579,801	8812,99
580,22	8434,95
580,638	8630,15
581,057	8521,43
581,475	8247,16
581,893	8472,01
582,311	8131,03
582,73	8271,87
583,148	8439,89
583,566	8437,42
583,984	8588,14
584,401	8580,73
584,819	8568,37
585,237	8627,68
585,655	8728,98
586,072	8509,07
586,49	8583,2
586,908	8553,55
587,325	8474,48
587,742	8192,8
588,16	8474,48
588,577	8308,93
588,994	8210,1
589,412	8121,15
589,829	7940,77
590,246	7730,75
590,663	7943,24
591,08	7893,83
591,497	7987,72
591,914	7849,35
592,33	7822,17
592,747	7953,13
593,164	7715,92
593,58	7723,34
593,997	7896,3
594,413	7982,78
594,83	8091,5
595,246	8032,19
595,663	8264,46
596,079	8242,22
596,495	8531,31
596,911	8699,33
597,327	8743,81
597,743	9097,14
598,159	8766,04
598,575	9166,33
598,991	9057,61
599,407	9381,29
599,823	9366,47
600,238	9492,48
600,654	9712,39
601,07	9865,58
601,485	10115,14
601,901	10033,6
602,316	10349,87
602,731	10325,17
603,147	10189,27
603,562	10295,52
603,977	10045,96
604,392	10041,02
604,807	9974,3
605,222	10011,37
605,637	10102,79
606,052	10246,1
606,467	10386,94
606,882	10515,42
607,296	11004,66
607,711	11350,58
608,125	11442
608,54	11953,47
608,954	12062,19
609,369	12252,45
609,783	12375,99
610,197	12544,01
610,612	13013,48
611,026	12870,17
611,44	13537,3
611,854	13772,04
612,268	14137,73
612,682	15064,3
613,096	15551,07
613,51	16324,45
613,923	17574,71
614,337	18474,11
614,751	19800,97
615,164	21330,44
615,578	22976,04
615,991	24475,86
616,405	26403,15
616,818	27883,2
617,231	29096,4
617,645	30191
618,058	30981,68
618,471	31416,55
618,884	31379,49
619,297	31092,86
619,71	30892,72
620,123	30309,6
620,536	29306,42
620,948	28310,66
621,361	27238,3
621,774	26558,81
622,186	25110,88
622,599	24258,43
623,011	23203,36
623,424	22227,37
623,836	21639,3
624,248	20544,7
624,661	19670,01
625,073	19279,61
625,485	18649,54
625,897	18345,62
626,309	17703,2
626,721	17547,53
627,133	17604,36
627,545	17512,94
627,956	17760,03
628,368	18264,09
628,78	18587,77
629,191	18866,98
629,603	19375,98
630,014	20127,12
630,426	20794,26
630,837	21503,4
631,248	22103,82
631,66	23445,51
632,071	24018,75
632,482	24945,33
632,893	25209,71
633,304	26237,6
633,715	26600,82
634,126	27263,01
634,536	27851,08
634,947	27789,31
635,358	27902,97
635,769	28367,49
636,179	28105,58
636,59	28261,24
637	27912,85
637,41	27796,72
637,821	27485,39
638,231	27522,45
638,641	26993,68
639,051	26818,25
639,462	26949,21
639,872	26304,31
640,282	25950,98
640,691	25424,68
641,101	25600,11
641,511	25669,3
641,921	25392,56
642,331	25392,56
642,74	25273,96
643,15	25039,22
643,559	25004,63
643,969	24802,02
644,378	24905,8
644,787	24881,09
645,197	24616,7
645,606	24105,23
646,015	23776,61
646,424	23843,32
646,833	23643,18
647,242	23415,86
647,651	23324,44
648,06	23109,47
648,469	23134,18
648,877	22978,51
649,286	22815,44
649,694	22993,34
650,103	22840,14
650,512	22536,23
650,92	22375,62
651,328	22135,95
651,737	22640
652,145	22365,74
652,553	22548,58
652,961	22474,46
653,369	23356,56
653,777	23336,79
654,185	24050,87
654,593	23924,86
655,001	24683,42
655,409	24594,47
655,816	24772,37
656,224	25323,37
656,631	25441,98
657,039	25585,29
657,446	25985,57
657,854	26207,95
658,261	26635,41
658,668	27510,1
659,076	27670,7
659,483	28621,99
659,89	29069,22
660,297	29887,08
660,704	30443,02
661,111	30991,56
661,518	32056,51
661,924	32269
662,331	33202,99
662,738	34117,22
663,144	34811,53
663,551	35750,46
663,957	36360,77
664,364	37485,02
664,77	38569,73
665,177	40156,03
665,583	41796,69
665,989	43323,69
666,395	45451,12
666,801	47175,79
667,207	48982
667,613	50573,24
668,019	52320,15
668,425	53535,82
668,83	54121,41
669,236	54417,92
669,642	54630,41
670,047	54736,66
670,453	54193,07
670,858	52940,34
671,264	52080,47
671,669	50279,2
672,074	48482,88
672,48	46135,55
672,885	44670,32
673,29	41937,53
673,695	39859,53
674,1	37396,07
674,505	35411,95
674,909	33254,88
675,314	31191,7
675,719	29724
676,124	28150,05
676,528	26734,24
676,933	25461,74
677,337	24441,27
677,742	23401,03
678,146	22889,56
678,55	22232,31
678,955	21500,93
679,359	21204,43
679,763	20791,79
680,167	20339,62
680,571	20356,92
680,975	19902,28
681,379	19492,11
681,782	19462,46
682,186	18778,03
682,59	18409,87
682,993	17974,99
683,397	17241,14
683,8	16722,26
684,204	16168,78
684,607	15538,71
685,011	14767,8
685,414	14110,55
685,817	13411,29
686,22	12704,62
686,623	12225,27
687,026	11815,1
687,429	11437,06
687,832	11063,96
688,235	10458,59
688,638	10510,48
689,04	10241,16
689,443	10174,44
689,845	10107,73
690,248	10144,79
690,65	10102,79
691,053	10179,38
691,455	10191,74
691,857	9826,05
692,26	10221,39
692,662	10031,13
693,064	10041,02
693,466	9714,86
693,868	10075,61
694,27	9961,95
694,671	10105,26
695,073	10060,78
695,475	9971,83
695,877	9865,58
696,278	9892,76
696,68	9905,12
697,081	9932,3
697,483	10021,25
697,884	9734,63
698,285	9428,24
698,686	9265,16
699,087	9230,57
699,489	9032,9
699,89	8874,76
700,291	8410,24
700,691	8121,15
701,092	7812,29
701,493	7634,38
701,894	7416,95
702,294	7268,69
702,695	6949,95
703,096	6549,67
703,496	6475,54
703,896	6238,34
704,297	5976,43
704,697	5682,39
705,097	5452,6
705,497	5232,69
705,897	5015,26
706,297	4849,71
706,697	4817,59
707,097	4582,85
707,497	4360,48
707,897	4325,88
