Data from FLMS187131_14-09-26-171.txt Node
Date: Mon Dec 23 14:09:26 MSK 2024
User: FemtoLab1
Spectrometer: FLMS18713
Trigger mode: 0
Integration Time (sec): 8,120000E-1
Scans to average: 1
Electric dark correction enabled: true
Nonlinearity correction enabled: false
Boxcar width: 0
XAxis mode: Wavelengths
Number of Pixels in Spectrum: 2048
>>>>>Begin Spectral Data<<<<<
190,252	-118,91
190,715	-118,91
191,177	-118,91
191,64	-173,27
192,102	-89,26
192,565	-47,26
193,027	-62,08
193,49	-84,32
193,952	-89,26
194,415	-17,6
194,877	-37,37
195,339	-29,96
195,802	-29,96
196,264	-91,73
196,726	-2,78
197,188	120,76
197,65	-42,31
198,112	36,75
198,574	103,47
199,036	73,82
199,498	199,83
199,96	222,07
200,421	231,95
200,883	222,07
201,345	286,31
201,807	451,86
202,268	345,61
202,73	320,9
203,191	345,61
203,653	402,44
204,114	375,26
204,576	461,74
205,037	380,21
205,498	377,73
205,96	414,8
206,421	432,09
206,882	409,86
207,343	483,98
207,804	466,69
208,265	486,45
208,726	439,51
209,187	483,98
209,648	451,86
210,109	516,1
210,57	506,22
211,031	439,51
211,492	412,33
211,952	444,45
212,413	471,63
212,874	432,09
213,334	479,04
213,795	498,81
214,255	530,93
214,716	518,57
215,176	464,22
215,636	444,45
216,097	439,51
216,557	464,22
217,017	449,39
217,477	387,62
217,938	441,98
218,398	449,39
218,858	461,74
219,318	414,8
219,778	412,33
220,238	360,44
220,698	464,22
221,157	385,15
221,617	353,03
222,077	375,26
222,537	424,68
222,996	466,69
223,456	362,91
223,915	503,75
224,375	446,92
224,834	407,39
225,294	382,68
225,753	419,74
226,213	437,04
226,672	456,8
227,131	432,09
227,59	360,44
228,05	419,74
228,509	387,62
228,968	412,33
229,427	390,09
229,886	424,68
230,345	444,45
230,804	328,32
231,263	419,74
231,721	335,73
232,18	357,97
232,639	437,04
233,098	481,51
233,556	469,16
234,015	387,62
234,473	496,34
234,932	491,4
235,39	429,62
235,849	429,62
236,307	427,15
236,765	441,98
237,224	454,33
237,682	459,27
238,14	390,09
238,598	501,28
239,056	404,91
239,514	387,62
239,972	404,91
240,43	419,74
240,888	399,97
241,346	422,21
241,804	417,27
242,262	397,5
242,72	439,51
243,177	459,27
243,635	409,86
244,093	456,8
244,55	432,09
245,008	444,45
245,465	538,34
245,923	518,57
246,38	530,93
246,837	404,91
247,295	441,98
247,752	449,39
248,209	404,91
248,666	459,27
249,123	441,98
249,58	459,27
250,037	399,97
250,494	451,86
250,951	439,51
251,408	419,74
251,865	449,39
252,322	439,51
252,779	414,8
253,235	488,92
253,692	459,27
254,149	419,74
254,605	474,1
255,062	451,86
255,518	498,81
255,975	375,26
256,431	449,39
256,887	402,44
257,344	404,91
257,8	434,57
258,256	397,5
258,712	404,91
259,168	444,45
259,625	402,44
260,081	427,15
260,537	437,04
260,992	466,69
261,448	417,27
261,904	464,22
262,36	476,57
262,816	441,98
263,272	486,45
263,727	427,15
264,183	481,51
264,638	441,98
265,094	414,8
265,549	456,8
266,005	466,69
266,46	424,68
266,916	444,45
267,371	516,1
267,826	550,7
268,281	471,63
268,737	456,8
269,192	417,27
269,647	412,33
270,102	454,33
270,557	414,8
271,012	481,51
271,467	437,04
271,921	503,75
272,376	437,04
272,831	491,4
273,286	523,52
273,74	437,04
274,195	437,04
274,649	471,63
275,104	464,22
275,558	382,68
276,013	432,09
276,467	466,69
276,922	454,33
277,376	486,45
277,83	488,92
278,284	370,32
278,739	466,69
279,193	422,21
279,647	466,69
280,101	464,22
280,555	395,03
281,009	407,39
281,462	434,57
281,916	516,1
282,37	422,21
282,824	471,63
283,278	486,45
283,731	377,73
284,185	432,09
284,638	479,04
285,092	474,1
285,545	451,86
285,999	486,45
286,452	493,87
286,905	459,27
287,359	432,09
287,812	439,51
288,265	471,63
288,718	684,12
289,171	414,8
289,624	429,62
290,077	474,1
290,53	469,16
290,983	476,57
291,436	496,34
291,889	444,45
292,342	441,98
292,794	479,04
293,247	466,69
293,7	402,44
294,152	575,4
294,605	390,09
295,057	474,1
295,51	466,69
295,962	528,46
296,414	417,27
296,867	424,68
297,319	461,74
297,771	501,28
298,223	414,8
298,675	471,63
299,128	471,63
299,58	454,33
300,032	414,8
300,483	521,05
300,935	350,56
301,387	454,33
301,839	530,93
302,291	461,74
302,742	459,27
303,194	454,33
303,646	496,34
304,097	409,86
304,549	538,34
305	508,69
305,451	496,34
305,903	446,92
306,354	572,93
306,805	454,33
307,257	533,4
307,708	451,86
308,159	476,57
308,61	535,87
309,061	476,57
309,512	496,34
309,963	469,16
310,414	466,69
310,865	521,05
311,315	466,69
311,766	486,45
312,217	404,91
312,668	432,09
313,118	419,74
313,569	392,56
314,019	427,15
314,47	441,98
314,92	459,27
315,37	409,86
315,821	508,69
316,271	432,09
316,721	404,91
317,171	424,68
317,622	390,09
318,072	434,57
318,522	434,57
318,972	471,63
319,422	516,1
319,872	518,57
320,321	466,69
320,771	540,81
321,221	449,39
321,671	476,57
322,12	548,23
322,57	540,81
323,019	449,39
323,469	498,81
323,918	362,91
324,368	434,57
324,817	454,33
325,267	370,32
325,716	503,75
326,165	483,98
326,614	461,74
327,063	530,93
327,512	483,98
327,961	397,5
328,41	466,69
328,859	454,33
329,308	474,1
329,757	481,51
330,206	511,16
330,655	481,51
331,103	466,69
331,552	456,8
332,001	385,15
332,449	404,91
332,898	488,92
333,346	437,04
333,794	417,27
334,243	451,86
334,691	422,21
335,139	444,45
335,588	516,1
336,036	427,15
336,484	414,8
336,932	508,69
337,38	456,8
337,828	600,11
338,276	451,86
338,724	476,57
339,172	434,57
339,619	451,86
340,067	528,46
340,515	439,51
340,962	461,74
341,41	451,86
341,858	449,39
342,305	474,1
342,753	429,62
343,2	474,1
343,647	464,22
344,095	483,98
344,542	422,21
344,989	464,22
345,436	461,74
345,883	461,74
346,33	446,92
346,777	548,23
347,224	427,15
347,671	479,04
348,118	503,75
348,565	417,27
349,012	449,39
349,458	446,92
349,905	380,21
350,352	441,98
350,798	496,34
351,245	483,98
351,691	486,45
352,138	390,09
352,584	414,8
353,03	422,21
353,477	456,8
353,923	481,51
354,369	469,16
354,815	427,15
355,261	587,76
355,707	417,27
356,153	424,68
356,599	395,03
357,045	432,09
357,491	469,16
357,937	323,38
358,382	446,92
358,828	476,57
359,274	444,45
359,719	439,51
360,165	474,1
360,61	466,69
361,056	550,7
361,501	511,16
361,947	498,81
362,392	506,22
362,837	441,98
363,282	469,16
363,727	479,04
364,173	493,87
364,618	456,8
365,063	523,52
365,508	429,62
365,952	503,75
366,397	481,51
366,842	491,4
367,287	353,03
367,732	508,69
368,176	511,16
368,621	518,57
369,065	488,92
369,51	429,62
369,954	454,33
370,399	513,63
370,843	474,1
371,287	449,39
371,732	449,39
372,176	461,74
372,62	456,8
373,064	446,92
373,508	370,32
373,952	488,92
374,396	479,04
374,84	392,56
375,284	402,44
375,728	464,22
376,172	439,51
376,615	503,75
377,059	449,39
377,503	434,57
377,946	476,57
378,39	474,1
378,833	427,15
379,277	434,57
379,72	481,51
380,163	461,74
380,607	570,46
381,05	481,51
381,493	402,44
381,936	488,92
382,379	429,62
382,822	469,16
383,265	533,4
383,708	429,62
384,151	488,92
384,594	434,57
385,037	404,91
385,479	461,74
385,922	474,1
386,365	390,09
386,807	402,44
387,25	441,98
387,692	454,33
388,135	441,98
388,577	444,45
389,019	444,45
389,461	488,92
389,904	491,4
390,346	459,27
390,788	407,39
391,23	525,99
391,672	464,22
392,114	444,45
392,556	404,91
392,998	422,21
393,44	446,92
393,881	486,45
394,323	456,8
394,765	441,98
395,206	444,45
395,648	456,8
396,09	432,09
396,531	456,8
396,972	508,69
397,414	451,86
397,855	387,62
398,296	459,27
398,738	535,87
399,179	454,33
399,62	429,62
400,061	432,09
400,502	419,74
400,943	491,4
401,384	471,63
401,825	464,22
402,265	385,15
402,706	439,51
403,147	434,57
403,588	464,22
404,028	451,86
404,469	590,23
404,909	513,63
405,35	555,64
405,79	476,57
406,23	474,1
406,671	469,16
407,111	466,69
407,551	446,92
407,991	397,5
408,431	441,98
408,871	414,8
409,311	456,8
409,751	501,28
410,191	511,16
410,631	434,57
411,071	585,29
411,511	521,05
411,95	479,04
412,39	493,87
412,83	446,92
413,269	466,69
413,709	493,87
414,148	518,57
414,587	545,75
415,027	491,4
415,466	511,16
415,905	466,69
416,345	567,99
416,784	486,45
417,223	493,87
417,662	498,81
418,101	471,63
418,54	523,52
418,979	525,99
419,417	555,64
419,856	469,16
420,295	582,82
420,734	590,23
421,172	496,34
421,611	501,28
422,049	622,35
422,488	560,58
422,926	528,46
423,364	614,94
423,803	597,64
424,241	545,75
424,679	587,76
425,117	622,35
425,555	684,12
425,994	572,93
426,432	610
426,87	671,77
427,307	644,59
427,745	689,07
428,183	812,61
428,621	755,78
429,058	698,95
429,496	708,83
429,934	770,6
430,371	758,25
430,809	795,31
431,246	824,96
431,684	913,91
432,121	807,67
432,558	948,51
432,995	889,21
433,433	928,74
433,87	943,57
434,307	904,03
434,744	955,92
435,181	1188,18
435,618	1301,84
436,055	1645,29
436,491	1511,87
436,928	1462,45
437,365	1356,2
437,801	1225,24
438,238	1299,37
438,675	1168,41
439,111	1262,31
439,548	1212,89
439,984	1287,02
440,42	1254,9
440,857	1341,38
441,293	1264,78
441,729	1413,03
442,165	1400,68
442,601	1440,21
443,037	1408,09
443,473	1539,05
443,909	1410,56
444,345	1447,62
444,781	1585,99
445,217	1531,63
445,652	1610,7
446,088	1630,47
446,524	1694,71
446,959	1724,36
447,395	1672,47
447,83	1815,78
448,266	1652,71
448,701	1694,71
449,136	1798,49
449,572	1692,24
450,007	1872,61
450,442	1820,73
450,877	1838,02
451,312	1800,96
451,747	1800,96
452,182	1635,41
452,617	1697,18
453,052	1721,89
453,486	1781,19
453,921	1652,71
454,356	1709,54
454,79	1704,59
455,225	1608,23
455,66	1707,07
456,094	1687,3
456,528	1628
456,963	1561,28
457,397	1472,33
457,831	1497,04
458,265	1447,62
458,7	1437,74
459,134	1455,04
459,568	1455,04
460,002	1353,73
460,436	1294,43
460,87	1269,72
461,303	1346,32
461,737	1341,38
462,171	1361,14
462,605	1356,2
463,038	1170,89
463,472	1242,54
463,905	1235,13
464,339	1279,6
464,772	1094,29
465,205	1170,89
465,639	1146,18
466,072	1188,18
466,505	1151,12
466,938	1170,89
467,371	1175,83
467,804	1163,47
468,237	1173,36
468,67	1141,24
469,103	1072,05
469,536	1064,64
469,969	1116,53
470,402	992,98
470,834	1076,99
471,267	1141,24
471,699	1017,69
472,132	970,74
472,564	1126,41
472,997	1049,81
473,429	978,16
473,861	970,74
474,294	1099,23
474,726	1074,52
475,158	995,45
475,59	1034,99
476,022	1000,4
476,454	1064,64
476,886	1017,69
477,318	1017,69
477,75	978,16
478,181	936,15
478,613	1116,53
479,045	921,33
479,476	1104,17
479,908	970,74
480,339	1121,47
480,771	995,45
481,202	1104,17
481,634	997,92
482,065	995,45
482,496	1017,69
482,927	1057,23
483,358	1047,34
483,789	1010,28
484,22	1042,4
484,651	1044,87
485,082	1143,71
485,513	1074,52
485,944	1138,76
486,375	1101,7
486,805	1116,53
487,236	1141,24
487,667	1042,4
488,097	1217,83
488,527	1156,06
488,958	1128,88
489,388	1205,48
489,819	1269,72
490,249	1178,3
490,679	1183,24
491,109	1193,12
491,539	1267,25
491,969	1279,6
492,399	1366,08
492,829	1398,21
493,259	1324,08
493,689	1301,84
494,119	1338,91
494,548	1410,56
494,978	1403,15
495,408	1410,56
495,837	1511,87
496,267	1497,04
496,696	1457,51
497,126	1464,92
497,555	1600,82
497,984	1529,16
498,413	1655,18
498,843	1551,4
499,272	1608,23
499,701	1692,24
500,13	1674,94
500,559	1729,3
500,988	1751,54
501,417	1887,44
501,845	1884,97
502,274	1862,73
502,703	1964,04
503,131	2003,57
503,56	2018,4
503,988	2060,4
504,417	2080,17
504,845	2045,58
505,274	2188,89
505,702	2122,17
506,13	2292,66
506,558	2263,01
506,987	2280,31
507,415	2282,78
507,843	2376,67
508,271	2354,43
508,699	2473,04
509,126	2485,39
509,554	2586,7
509,982	2584,23
510,41	2463,15
510,837	2705,3
511,265	2594,11
511,693	2653,41
512,12	2633,64
512,547	2710,24
512,975	2870,85
513,402	2875,79
513,829	2944,97
514,257	2925,21
514,684	2957,33
515,111	3024,04
515,538	3046,28
515,965	3080,87
516,392	3036,4
516,819	3046,28
517,246	3199,47
517,672	3120,41
518,099	3172,29
518,526	3253,83
518,952	3229,12
519,379	3256,3
519,805	3335,37
520,232	3342,78
520,658	3332,9
521,085	3453,97
521,511	3330,43
521,937	3463,86
522,363	3570,1
522,789	3525,63
523,215	3458,92
523,641	3515,75
524,067	3458,92
524,493	3530,57
524,919	3577,52
525,345	3772,72
525,771	3706
526,196	3688,71
526,622	3678,82
527,047	3683,76
527,473	3765,3
527,898	3861,67
528,324	3787,54
528,749	3841,9
529,174	3878,96
529,6	3851,78
530,025	3869,08
530,45	3856,73
530,875	3824,6
531,3	3849,31
531,725	4007,45
532,15	4106,28
532,575	3960,5
532,999	3990,15
533,424	3987,68
533,849	4150,76
534,273	3977,8
534,698	4175,47
535,122	4269,36
535,547	4111,23
535,971	4237,24
536,396	4205,12
536,82	4150,76
537,244	4098,87
537,668	4197,71
538,092	4195,24
538,517	4279,25
538,941	4355,84
539,364	4150,76
539,788	4363,26
540,212	4353,37
540,636	4202,65
541,06	4511,51
541,483	4286,66
541,907	4358,31
542,331	4378,08
542,754	4321,25
543,178	4284,19
543,601	4427,5
544,024	4528,8
544,448	4400,32
544,871	4355,84
545,294	4555,98
545,717	5472,68
546,14	6475,85
546,563	7138,05
546,986	6789,65
547,409	6283,12
547,832	5826,01
548,255	5428,2
548,677	5186,06
549,1	5106,99
549,522	4743,77
549,945	4684,47
550,368	4677,06
550,79	4714,12
551,212	4753,65
551,635	4652,35
552,057	4593,05
552,479	4494,21
552,901	4726,47
553,323	4597,99
553,745	4758,6
554,167	4946,38
554,589	4743,77
555,011	4859,9
555,433	4859,9
555,855	4892,02
556,277	5074,87
556,698	5097,1
557,12	5134,17
557,541	5079,81
557,963	5378,78
558,384	5346,66
558,806	5494,92
559,227	5638,23
559,648	6243,59
560,069	6446,2
560,49	6792,12
560,912	7676,7
561,333	8445,14
561,754	9107,33
562,174	10019,09
562,595	10760,35
563,016	11800,59
563,437	12704,93
563,858	13727,87
564,278	14824,94
564,699	15773,75
565,119	17179,68
565,54	19045,19
565,96	20658,67
566,38	22660,08
566,801	25002,47
567,221	28105,89
567,641	30547,11
568,061	33546,75
568,481	36356,14
568,901	39943,85
569,321	42390,01
569,741	44401,3
570,161	46167,98
570,581	48117,5
571,001	49649,44
571,42	50842,87
571,84	51552,01
572,259	52814,63
572,679	53054,3
573,098	53672,02
573,518	53975,94
573,937	54010,53
574,356	54003,12
574,775	53363,16
575,195	53024,65
575,614	52251,27
576,033	51072,66
576,452	49355,41
576,871	48589,43
577,29	45925,83
577,708	43971,37
578,127	40334,24
578,546	38278,48
578,964	34703,12
579,383	32017,28
579,801	28728,55
580,22	25699,26
580,638	22783,62
581,057	20001,42
581,475	17335,35
581,893	15230,16
582,311	13122,5
582,73	11353,36
583,148	9542,21
583,566	11343,48
583,984	7582,8
584,401	6725,41
584,819	6171,94
585,237	5677,76
585,655	5144,05
586,072	4988,39
586,49	4773,42
586,908	4728,94
587,325	4447,26
587,742	4422,56
588,16	4397,85
588,577	4593,05
588,994	4432,44
589,412	4489,27
589,829	4402,79
590,246	4439,85
590,663	4308,9
591,08	4397,85
591,497	4321,25
591,914	4402,79
592,33	4286,66
592,747	4321,25
593,164	4385,49
593,58	4370,67
593,997	4308,9
594,413	4175,47
594,83	4192,76
595,246	4249,59
595,663	4098,87
596,079	4192,76
596,495	4224,89
596,911	4266,89
597,327	4257,01
597,743	4155,7
598,159	4182,88
598,575	4249,59
598,991	4150,76
599,407	4116,17
599,823	4210,06
600,238	4039,57
600,654	4163,11
601,07	4039,57
601,485	3908,61
601,901	3995,09
602,316	4002,51
602,731	3891,32
603,147	3814,72
603,562	3883,91
603,977	3797,42
604,392	3659,06
604,807	3607,17
605,222	3668,94
605,637	3584,93
606,052	3668,94
606,467	3436,68
606,882	3500,92
607,296	3416,91
607,711	3315,6
608,125	3426,79
608,54	3325,49
608,954	3323,02
609,369	3325,49
609,783	3266,19
610,197	3127,82
610,612	3211,83
611,026	3125,35
611,44	3127,82
611,854	3162,41
612,268	3132,76
612,682	3095,7
613,096	2932,62
613,51	3053,69
613,923	2957,33
614,337	2818,96
614,751	2863,43
615,164	2816,49
615,578	2902,97
615,991	2744,83
616,405	2843,67
616,818	2767,07
617,231	2823,9
617,645	2786,84
618,058	2762,13
618,471	2599,05
618,884	2710,24
619,297	2692,94
619,71	2596,58
620,123	2673,18
620,536	2601,52
620,948	2561,99
621,361	2638,58
621,774	2643,53
622,186	2505,16
622,599	2532,34
623,011	2443,39
623,424	2596,58
623,836	2485,39
624,248	2510,1
624,661	2487,86
625,073	2463,15
625,485	2524,92
625,897	2337,14
626,309	2384,08
626,721	2356,91
627,133	2250,66
627,545	2337,14
627,956	2144,41
628,368	2206,18
628,78	2169,12
629,191	2129,58
629,603	2070,28
630,014	2102,41
630,426	2023,34
630,837	2060,4
631,248	2060,4
631,66	2035,69
632,071	1892,38
632,482	1867,67
632,893	1922,03
633,304	2006,04
633,715	1949,21
634,126	1912,15
634,536	1894,85
634,947	1798,49
635,358	1791,08
635,769	1860,26
636,179	1788,6
636,59	1674,94
637	1746,6
637,41	1707,07
637,821	1741,66
638,231	1588,46
638,641	1704,59
639,051	1670
639,462	1650,24
639,872	1603,29
640,282	1610,7
640,691	1625,53
641,101	1524,22
641,511	1440,21
641,921	1598,35
642,331	1598,35
642,74	1521,75
643,15	1425,39
643,559	1487,16
643,969	1521,75
644,378	1516,81
644,787	1548,93
645,197	1375,97
645,606	1457,51
646,015	1361,14
646,424	1605,76
646,833	1437,74
647,242	1405,62
647,651	1393,26
648,06	1324,08
648,469	1358,67
648,877	1299,37
649,286	1366,08
649,694	1252,42
650,103	1217,83
650,512	1309,25
650,92	1274,66
651,328	1242,54
651,737	1170,89
652,145	1193,12
652,553	1185,71
652,961	1138,76
653,369	1180,77
653,777	1175,83
654,185	1067,11
654,593	1168,41
655,001	1257,37
655,409	1161
655,816	1128,88
656,224	1203,01
656,631	1133,82
657,039	1123,94
657,446	1358,67
657,854	1163,47
658,261	1136,29
658,668	1067,11
659,076	1091,82
659,483	1042,4
659,89	1081,93
660,297	1084,4
660,704	1089,35
661,111	1052,28
661,518	1062,17
661,924	1072,05
662,331	1057,23
662,738	990,51
663,144	938,62
663,551	973,22
663,957	1067,11
664,364	1015,22
664,77	950,98
665,177	1025,1
665,583	997,92
665,989	955,92
666,395	938,62
666,801	891,68
667,207	884,26
667,613	975,69
668,019	859,56
668,425	876,85
668,83	1005,34
669,236	908,97
669,642	913,91
670,047	960,86
670,453	1017,69
670,858	973,22
671,264	797,78
671,669	923,8
672,074	797,78
672,48	876,85
672,885	889,21
673,29	785,43
673,695	824,96
674,1	864,5
674,505	913,91
674,909	807,67
675,314	765,66
675,719	790,37
676,124	800,25
676,528	745,9
676,933	780,49
677,337	820,02
677,742	733,54
678,146	901,56
678,55	839,79
678,955	778,02
679,359	723,66
679,763	782,96
680,167	708,83
680,571	718,72
680,975	820,02
681,379	763,19
681,782	718,72
682,186	770,6
682,59	721,19
682,993	689,07
683,397	694,01
683,8	711,3
684,204	733,54
684,607	698,95
685,011	716,24
685,414	674,24
685,817	644,59
686,22	674,24
686,623	755,78
687,026	691,54
687,429	634,71
687,832	629,76
688,235	664,36
688,638	711,3
689,04	694,01
689,443	659,41
689,845	661,89
690,248	610
690,65	614,94
691,053	595,17
691,455	642,12
691,857	684,12
692,26	721,19
692,662	575,4
693,064	669,3
693,466	570,46
693,868	669,3
694,27	634,71
694,671	570,46
695,073	637,18
695,475	627,29
695,877	632,23
696,278	575,4
696,68	740,95
697,081	810,14
697,483	642,12
697,884	669,3
698,285	659,41
698,686	644,59
699,087	570,46
699,489	540,81
699,89	592,7
700,291	558,11
700,691	555,64
701,092	533,4
701,493	543,28
701,894	590,23
702,294	558,11
702,695	540,81
703,096	550,7
703,496	516,1
703,896	563,05
704,297	558,11
704,697	597,64
705,097	528,46
705,497	530,93
705,897	555,64
706,297	661,89
706,697	548,23
707,097	627,29
707,497	572,93
707,897	605,06
708,297	545,75
708,696	533,4
709,096	543,28
709,495	580,35
709,895	535,87
710,294	471,63
710,694	629,76
711,093	570,46
711,492	538,34
711,891	516,1
712,29	538,34
712,689	488,92
