Data from FLMS187131_14-23-45-269.txt Node
Date: Mon Dec 23 14:23:45 MSK 2024
User: FemtoLab1
Spectrometer: FLMS18713
Trigger mode: 0
Integration Time (sec): 1,200000E-1
Scans to average: 1
Electric dark correction enabled: true
Nonlinearity correction enabled: false
Boxcar width: 0
XAxis mode: Wavelengths
Number of Pixels in Spectrum: 2048
>>>>>Begin Spectral Data<<<<<
190,252	-43,86
190,715	-43,86
191,177	-43,86
191,64	-162,46
192,102	-108,1
192,565	-95,75
193,027	-24,09
193,49	-147,63
193,952	-110,57
194,415	-58,68
194,877	-66,1
195,339	-6,79
195,802	-29,03
196,264	-29,03
196,726	35,21
197,188	32,74
197,65	42,62
198,112	84,63
198,574	94,51
199,036	141,46
199,498	136,52
199,96	161,22
200,421	215,58
200,883	176,05
201,345	245,23
201,807	277,36
202,268	314,42
202,73	311,95
203,191	307,01
203,653	326,77
204,114	311,95
204,576	361,37
205,037	329,24
205,498	321,83
205,96	376,19
206,421	408,31
206,882	363,84
207,343	398,43
207,804	408,31
208,265	425,61
208,726	462,67
209,187	455,26
209,648	388,54
210,109	373,72
210,57	470,08
211,031	386,07
211,492	391,02
211,952	363,84
212,413	376,19
212,874	398,43
213,334	326,77
213,795	472,55
214,255	376,19
214,716	361,37
215,176	428,08
215,636	356,42
216,097	420,67
216,557	405,84
217,017	368,78
217,477	368,78
217,938	415,72
218,398	433,02
218,858	420,67
219,318	329,24
219,778	428,08
220,238	386,07
220,698	292,18
221,157	408,31
221,617	339,13
222,077	398,43
222,537	336,66
222,996	294,65
223,456	423,14
223,915	413,25
224,375	418,2
224,834	361,37
225,294	371,25
225,753	326,77
226,213	415,72
226,672	388,54
227,131	398,43
227,59	334,19
228,05	336,66
228,509	391,02
228,968	393,49
229,427	378,66
229,886	331,71
230,345	341,6
230,804	373,72
231,263	277,36
231,721	339,13
232,18	334,19
232,639	368,78
233,098	400,9
233,556	371,25
234,015	324,3
234,473	371,25
234,932	457,73
235,39	368,78
235,849	388,54
236,307	400,9
236,765	334,19
237,224	378,66
237,682	373,72
238,14	349,01
238,598	353,95
239,056	356,42
239,514	339,13
239,972	395,96
240,43	339,13
240,888	381,13
241,346	400,9
241,804	344,07
242,262	356,42
242,72	378,66
243,177	334,19
243,635	388,54
244,093	371,25
244,55	346,54
245,008	334,19
245,465	361,37
245,923	373,72
246,38	344,07
246,837	400,9
247,295	366,31
247,752	408,31
248,209	400,9
248,666	381,13
249,123	373,72
249,58	405,84
250,037	413,25
250,494	388,54
250,951	423,14
251,408	371,25
251,865	391,02
252,322	371,25
252,779	363,84
253,235	405,84
253,692	378,66
254,149	462,67
254,605	413,25
255,062	361,37
255,518	395,96
255,975	423,14
256,431	346,54
256,887	346,54
257,344	344,07
257,8	400,9
258,256	445,38
258,712	400,9
259,168	361,37
259,625	400,9
260,081	329,24
260,537	470,08
260,992	413,25
261,448	447,85
261,904	502,21
262,36	329,24
262,816	408,31
263,272	400,9
263,727	433,02
264,183	346,54
264,638	442,9
265,094	433,02
265,549	442,9
266,005	425,61
266,46	440,43
266,916	405,84
267,371	455,26
267,826	420,67
268,281	395,96
268,737	378,66
269,192	395,96
269,647	440,43
270,102	393,49
270,557	435,49
271,012	398,43
271,467	415,72
271,921	428,08
272,376	391,02
272,831	366,31
273,286	428,08
273,74	410,78
274,195	398,43
274,649	408,31
275,104	445,38
275,558	423,14
276,013	344,07
276,467	428,08
276,922	393,49
277,376	425,61
277,83	356,42
278,284	376,19
278,739	428,08
279,193	391,02
279,647	420,67
280,101	371,25
280,555	386,07
281,009	423,14
281,462	413,25
281,916	457,73
282,37	423,14
282,824	425,61
283,278	366,31
283,731	435,49
284,185	428,08
284,638	376,19
285,092	410,78
285,545	420,67
285,999	440,43
286,452	378,66
286,905	405,84
287,359	334,19
287,812	428,08
288,265	373,72
288,718	477,5
289,171	470,08
289,624	381,13
290,077	433,02
290,53	420,67
290,983	408,31
291,436	368,78
291,889	398,43
292,342	445,38
292,794	452,79
293,247	428,08
293,7	373,72
294,152	388,54
294,605	455,26
295,057	381,13
295,51	393,49
295,962	430,55
296,414	393,49
296,867	381,13
297,319	358,89
297,771	415,72
298,223	373,72
298,675	410,78
299,128	363,84
299,58	408,31
300,032	450,32
300,483	356,42
300,935	423,14
301,387	440,43
301,839	363,84
302,291	408,31
302,742	420,67
303,194	405,84
303,646	413,25
304,097	400,9
304,549	428,08
305	279,83
305,451	410,78
305,903	391,02
306,354	418,2
306,805	447,85
307,257	413,25
307,708	403,37
308,159	388,54
308,61	383,6
309,061	462,67
309,512	499,73
309,963	435,49
310,414	383,6
310,865	430,55
311,315	346,54
311,766	403,37
312,217	410,78
312,668	435,49
313,118	393,49
313,569	460,2
314,019	386,07
314,47	437,96
314,92	371,25
315,37	455,26
315,821	462,67
316,271	425,61
316,721	462,67
317,171	418,2
317,622	450,32
318,072	425,61
318,522	395,96
318,972	455,26
319,422	433,02
319,872	452,79
320,321	455,26
320,771	415,72
321,221	395,96
321,671	376,19
322,12	425,61
322,57	445,38
323,019	455,26
323,469	415,72
323,918	445,38
324,368	450,32
324,817	366,31
325,267	425,61
325,716	400,9
326,165	371,25
326,614	472,55
327,063	479,97
327,512	450,32
327,961	403,37
328,41	467,61
328,859	450,32
329,308	393,49
329,757	363,84
330,206	435,49
330,655	334,19
331,103	413,25
331,552	415,72
332,001	475,03
332,449	425,61
332,898	465,14
333,346	455,26
333,794	415,72
334,243	381,13
334,691	455,26
335,139	435,49
335,588	395,96
336,036	361,37
336,484	403,37
336,932	405,84
337,38	405,84
337,828	405,84
338,276	383,6
338,724	376,19
339,172	435,49
339,619	341,6
340,067	391,02
340,515	405,84
340,962	415,72
341,41	514,56
341,858	442,9
342,305	383,6
342,753	435,49
343,2	484,91
343,647	395,96
344,095	450,32
344,542	395,96
344,989	425,61
345,436	410,78
345,883	371,25
346,33	442,9
346,777	425,61
347,224	410,78
347,671	442,9
348,118	472,55
348,565	425,61
349,012	425,61
349,458	388,54
349,905	420,67
350,352	445,38
350,798	410,78
351,245	361,37
351,691	413,25
352,138	472,55
352,584	435,49
353,03	383,6
353,477	452,79
353,923	460,2
354,369	356,42
354,815	395,96
355,261	494,79
355,707	410,78
356,153	393,49
356,599	440,43
357,045	405,84
357,491	405,84
357,937	383,6
358,382	371,25
358,828	452,79
359,274	410,78
359,719	420,67
360,165	445,38
360,61	383,6
361,056	435,49
361,501	452,79
361,947	437,96
362,392	410,78
362,837	405,84
363,282	465,14
363,727	440,43
364,173	393,49
364,618	423,14
365,063	450,32
365,508	371,25
365,952	452,79
366,397	509,62
366,842	489,85
367,287	433,02
367,732	437,96
368,176	410,78
368,621	442,9
369,065	398,43
369,51	465,14
369,954	442,9
370,399	447,85
370,843	460,2
371,287	433,02
371,732	400,9
372,176	479,97
372,62	413,25
373,064	408,31
373,508	395,96
373,952	452,79
374,396	442,9
374,84	395,96
375,284	467,61
375,728	425,61
376,172	386,07
376,615	425,61
377,059	435,49
377,503	433,02
377,946	405,84
378,39	415,72
378,833	425,61
379,277	440,43
379,72	425,61
380,163	475,03
380,607	361,37
381,05	405,84
381,493	423,14
381,936	425,61
382,379	435,49
382,822	413,25
383,265	430,55
383,708	415,72
384,151	410,78
384,594	415,72
385,037	410,78
385,479	403,37
385,922	425,61
386,365	398,43
386,807	386,07
387,25	452,79
387,692	405,84
388,135	415,72
388,577	413,25
389,019	400,9
389,461	435,49
389,904	356,42
390,346	415,72
390,788	425,61
391,23	472,55
391,672	381,13
392,114	386,07
392,556	425,61
392,998	420,67
393,44	376,19
393,881	477,5
394,323	450,32
394,765	440,43
395,206	437,96
395,648	435,49
396,09	383,6
396,531	383,6
396,972	413,25
397,414	398,43
397,855	366,31
398,296	415,72
398,738	460,2
399,179	405,84
399,62	423,14
400,061	430,55
400,502	415,72
400,943	472,55
401,384	381,13
401,825	445,38
402,265	472,55
402,706	366,31
403,147	445,38
403,588	428,08
404,028	425,61
404,469	410,78
404,909	316,89
405,35	420,67
405,79	408,31
406,23	391,02
406,671	462,67
407,111	420,67
407,551	442,9
407,991	393,49
408,431	433,02
408,871	405,84
409,311	373,72
409,751	484,91
410,191	395,96
410,631	405,84
411,071	435,49
411,511	366,31
411,95	405,84
412,39	450,32
412,83	465,14
413,269	440,43
413,709	395,96
414,148	371,25
414,587	408,31
415,027	460,2
415,466	423,14
415,905	381,13
416,345	368,78
416,784	423,14
417,223	428,08
417,662	455,26
418,101	398,43
418,54	433,02
418,979	484,91
419,417	413,25
419,856	455,26
420,295	423,14
420,734	435,49
421,172	425,61
421,611	445,38
422,049	440,43
422,488	425,61
422,926	400,9
423,364	391,02
423,803	450,32
424,241	433,02
424,679	470,08
425,117	457,73
425,555	472,55
425,994	482,44
426,432	415,72
426,87	482,44
427,307	477,5
427,745	430,55
428,183	509,62
428,621	425,61
429,058	450,32
429,496	462,67
429,934	403,37
430,371	442,9
430,809	475,03
431,246	472,55
431,684	460,2
432,121	465,14
432,558	460,2
432,995	435,49
433,433	479,97
433,87	536,8
434,307	514,56
434,744	531,86
435,181	524,44
435,618	556,56
436,055	675,17
436,491	534,33
436,928	519,5
437,365	559,04
437,801	487,38
438,238	526,91
438,675	544,21
439,111	556,56
439,548	591,16
439,984	517,03
440,42	541,74
440,857	534,33
441,293	467,61
441,729	554,09
442,165	566,45
442,601	598,57
443,037	539,27
443,473	620,81
443,909	563,98
444,345	605,98
444,781	596,1
445,217	536,8
445,652	578,8
446,088	603,51
446,524	620,81
446,959	581,27
447,395	596,1
447,83	620,81
448,266	657,87
448,701	603,51
449,136	539,27
449,572	566,45
450,007	578,8
450,442	571,39
450,877	652,93
451,312	551,62
451,747	586,21
452,182	630,69
452,617	598,57
453,052	618,34
453,486	549,15
453,921	650,46
454,356	647,99
454,79	586,21
455,225	650,46
455,66	566,45
456,094	638,1
456,528	526,91
456,963	586,21
457,397	554,09
457,831	625,75
458,265	605,98
458,7	566,45
459,134	512,09
459,568	568,92
460,002	576,33
460,436	526,91
460,87	507,15
461,303	519,5
461,737	482,44
462,171	536,8
462,605	551,62
463,038	507,15
463,472	586,21
463,905	465,14
464,339	581,27
464,772	554,09
465,205	512,09
465,639	531,86
466,072	509,62
466,505	475,03
466,938	549,15
467,371	475,03
467,804	563,98
468,237	546,68
468,67	489,85
469,103	502,21
469,536	554,09
469,969	460,2
470,402	452,79
470,834	551,62
471,267	568,92
471,699	465,14
472,132	517,03
472,564	568,92
472,997	544,21
473,429	512,09
473,861	489,85
474,294	477,5
474,726	413,25
475,158	475,03
475,59	470,08
476,022	541,74
476,454	546,68
476,886	499,73
477,318	554,09
477,75	492,32
478,181	450,32
478,613	541,74
479,045	447,85
479,476	524,44
479,908	484,91
480,339	482,44
480,771	484,91
481,202	452,79
481,634	470,08
482,065	504,68
482,496	554,09
482,927	519,5
483,358	494,79
483,789	556,56
484,22	475,03
484,651	539,27
485,082	610,92
485,513	573,86
485,944	526,91
486,375	563,98
486,805	502,21
487,236	509,62
487,667	465,14
488,097	571,39
488,527	489,85
488,958	460,2
489,388	541,74
489,819	519,5
490,249	524,44
490,679	571,39
491,109	586,21
491,539	524,44
491,969	541,74
492,399	563,98
492,829	544,21
493,259	605,98
493,689	568,92
494,119	588,69
494,548	618,34
494,978	623,28
495,408	620,81
495,837	680,11
496,267	610,92
496,696	650,46
497,126	643,05
497,555	722,11
497,984	643,05
498,413	608,45
498,843	672,7
499,272	662,81
499,701	667,75
500,13	643,05
500,559	689,99
500,988	623,28
501,417	722,11
501,845	783,88
502,274	781,41
502,703	825,89
503,131	964,26
503,56	1033,44
503,988	1016,15
504,417	1181,7
504,845	1189,11
505,274	1327,48
505,702	1411,49
506,13	1522,68
506,558	1579,51
506,987	1707,99
507,415	1964,96
507,843	2278,76
508,271	2807,53
508,699	3519,14
509,126	4290,06
509,554	5288,29
509,982	6422,42
510,41	7655,39
510,837	8638,79
511,265	9375,11
511,693	10160,85
512,12	10432,65
512,547	10790,93
512,975	10897,17
513,402	11033,07
513,829	11465,47
514,257	12421,7
514,684	13555,83
515,111	15460,88
515,538	18020,7
515,965	20899,27
516,392	24907,03
516,819	27928,91
517,246	31867,48
517,672	35183,4
518,099	37871,71
518,526	40419,18
518,952	41234,57
519,379	41024,54
519,805	40290,69
520,232	38635,21
520,658	36720,28
521,085	35200,69
521,511	33125,16
521,937	31659,93
522,363	31049,62
522,789	30281,18
523,215	31378,25
523,641	32341,89
524,067	34115,98
524,493	35890,07
524,919	37730,87
525,345	40107,85
525,771	40624,26
526,196	41447,06
526,622	41706,51
527,047	41785,57
527,473	40206,68
527,898	38464,72
528,324	36003,73
528,749	33624,28
529,174	30995,27
529,6	27881,96
530,025	25613,7
530,45	22712,89
530,875	20454,52
531,3	18423,46
531,725	16130,49
532,15	14640,55
532,575	12972,71
532,999	11423,47
533,424	10032,37
533,849	8574,55
534,273	7470,07
534,698	6204,98
535,122	5377,24
535,547	4467,96
535,971	3783,53
536,396	3099,09
536,82	2693,87
537,244	2323,24
537,668	2135,45
538,092	1908,13
538,517	1747,53
538,941	1777,18
539,364	1596,8
539,788	1641,28
540,212	1636,34
540,636	1577,04
541,06	1522,68
541,483	1441,14
541,907	1646,22
542,331	1490,55
542,754	1475,73
543,178	1433,72
543,601	1433,72
544,024	1431,25
544,448	1270,65
544,871	1302,77
545,294	1384,31
545,717	1418,9
546,14	1616,57
546,563	1579,51
546,986	1507,85
547,409	1458,43
547,832	1342,3
548,255	1342,3
548,677	1181,7
549,1	1154,52
549,522	1030,97
549,945	1166,87
550,368	1107,57
550,79	1100,16
551,212	1008,73
551,635	1006,26
552,057	1023,56
552,479	1092,74
552,901	1045,8
553,323	1053,21
553,745	1043,33
554,167	996,38
554,589	1065,56
555,011	1068,04
555,433	1080,39
555,855	1006,26
556,277	1028,5
556,698	1077,92
557,12	1087,8
557,541	1050,74
557,963	1097,69
558,384	1107,57
558,806	1082,86
559,227	1013,68
559,648	1114,98
560,069	1058,15
560,49	969,2
560,912	1065,56
561,333	1035,91
561,754	1043,33
562,174	1068,04
562,595	1107,57
563,016	1048,27
563,437	1077,92
563,858	951,9
564,278	1072,98
564,699	1023,56
565,119	969,2
565,54	1018,62
565,96	1021,09
566,38	1055,68
566,801	1040,86
567,221	1008,73
567,641	979,08
568,061	1065,56
568,481	1033,44
568,901	966,73
569,321	1003,79
569,741	1033,44
570,161	1087,8
570,581	1105,1
571,001	954,38
571,42	1085,33
571,84	956,85
572,259	1013,68
572,679	1087,8
573,098	1060,62
573,518	1072,98
573,937	1142,16
574,356	951,9
574,775	1132,28
575,195	1016,15
575,614	1095,22
576,033	1110,04
576,452	1090,27
576,871	1144,63
577,29	1082,86
577,708	1082,86
578,127	1114,98
578,546	1080,39
578,964	1127,34
579,383	1114,98
579,801	1169,34
580,22	1077,92
580,638	1114,98
581,057	1087,8
581,475	1087,8
581,893	1095,22
582,311	1072,98
582,73	979,08
583,148	993,91
583,566	1384,31
583,984	1058,15
584,401	971,67
584,819	954,38
585,237	1006,26
585,655	944,49
586,072	1068,04
586,49	986,5
586,908	1065,56
587,325	959,32
587,742	1016,15
588,16	1152,05
588,577	1058,15
588,994	1018,62
589,412	1048,27
589,829	1058,15
590,246	1060,62
590,663	979,08
591,08	1028,5
591,497	1043,33
591,914	979,08
592,33	981,55
592,747	1003,79
593,164	949,43
593,58	956,85
593,997	954,38
594,413	976,61
594,83	1006,26
595,246	1053,21
595,663	1028,5
596,079	971,67
596,495	998,85
596,911	969,2
597,327	1011,21
597,743	1028,5
598,159	956,85
598,575	1023,56
598,991	919,78
599,407	1070,51
599,823	979,08
600,238	1077,92
600,654	946,96
601,07	949,43
601,485	951,9
601,901	1028,5
602,316	959,32
602,731	944,49
603,147	969,2
603,562	966,73
603,977	959,32
604,392	900,02
604,807	927,2
605,222	914,84
605,637	1043,33
606,052	870,37
606,467	929,67
606,882	880,25
607,296	858,01
607,711	927,2
608,125	811,06
608,54	835,77
608,954	845,66
609,369	880,25
609,783	855,54
610,197	840,71
610,612	872,84
611,026	828,36
611,44	811,06
611,854	778,94
612,268	870,37
612,682	818,48
613,096	746,82
613,51	741,88
613,923	811,06
614,337	786,36
614,751	717,17
615,164	867,89
615,578	786,36
615,991	786,36
616,405	689,99
616,818	709,76
617,231	801,18
617,645	744,35
618,058	685,05
618,471	712,23
618,884	692,46
619,297	707,29
619,71	694,93
620,123	774
620,536	682,58
620,948	677,64
621,361	630,69
621,774	640,57
622,186	625,75
622,599	702,35
623,011	670,22
623,424	652,93
623,836	697,4
624,248	610,92
624,661	682,58
625,073	633,16
625,485	682,58
625,897	655,4
626,309	697,4
626,721	687,52
627,133	618,34
627,545	652,93
627,956	675,17
628,368	670,22
628,78	685,05
629,191	665,28
629,603	638,1
630,014	680,11
630,426	647,99
630,837	660,34
631,248	689,99
631,66	680,11
632,071	593,63
632,482	675,17
632,893	598,57
633,304	593,63
633,715	643,05
634,126	578,8
634,536	610,92
634,947	615,87
635,358	667,75
635,769	677,64
636,179	640,57
636,59	618,34
637	640,57
637,41	655,4
637,821	566,45
638,231	613,39
638,641	546,68
639,051	598,57
639,462	551,62
639,872	586,21
640,282	544,21
640,691	605,98
641,101	591,16
641,511	549,15
641,921	536,8
642,331	613,39
642,74	655,4
643,15	544,21
643,559	581,27
643,969	536,8
644,378	573,86
644,787	605,98
645,197	539,27
645,606	563,98
646,015	586,21
646,424	608,45
646,833	531,86
647,242	512,09
647,651	534,33
648,06	492,32
648,469	581,27
648,877	514,56
649,286	489,85
649,694	568,92
650,103	578,8
650,512	450,32
650,92	534,33
651,328	591,16
651,737	462,67
652,145	517,03
652,553	521,97
652,961	573,86
653,369	475,03
653,777	499,73
654,185	551,62
654,593	524,44
655,001	514,56
655,409	554,09
655,816	492,32
656,224	489,85
656,631	479,97
657,039	504,68
657,446	475,03
657,854	534,33
658,261	536,8
658,668	467,61
659,076	539,27
659,483	484,91
659,89	489,85
660,297	447,85
660,704	477,5
661,111	507,15
661,518	455,26
661,924	462,67
662,331	526,91
662,738	546,68
663,144	521,97
663,551	504,68
663,957	479,97
664,364	521,97
664,77	462,67
665,177	440,43
665,583	519,5
665,989	452,79
666,395	529,38
666,801	470,08
667,207	418,2
667,613	437,96
668,019	470,08
668,425	408,31
668,83	472,55
669,236	482,44
669,642	447,85
670,047	482,44
670,453	457,73
670,858	420,67
671,264	475,03
671,669	487,38
672,074	425,61
672,48	467,61
672,885	482,44
673,29	455,26
673,695	452,79
674,1	494,79
674,505	447,85
674,909	445,38
675,314	455,26
675,719	484,91
676,124	499,73
676,528	492,32
676,933	395,96
677,337	445,38
677,742	420,67
678,146	418,2
678,55	405,84
678,955	484,91
679,359	539,27
679,763	462,67
680,167	383,6
680,571	376,19
680,975	440,43
681,379	447,85
681,782	430,55
682,186	415,72
682,59	381,13
682,993	482,44
683,397	467,61
683,8	393,49
684,204	415,72
684,607	418,2
685,011	450,32
685,414	423,14
685,817	435,49
686,22	400,9
686,623	457,73
687,026	418,2
687,429	425,61
687,832	470,08
688,235	462,67
688,638	472,55
689,04	462,67
689,443	381,13
689,845	437,96
690,248	430,55
690,65	430,55
691,053	430,55
691,455	393,49
691,857	437,96
692,26	408,31
692,662	408,31
693,064	403,37
693,466	455,26
693,868	437,96
694,27	433,02
694,671	418,2
695,073	435,49
695,475	440,43
695,877	388,54
696,278	430,55
696,68	433,02
697,081	509,62
697,483	452,79
697,884	418,2
698,285	447,85
698,686	450,32
699,087	428,08
699,489	395,96
699,89	413,25
700,291	428,08
700,691	452,79
701,092	363,84
701,493	410,78
701,894	381,13
702,294	398,43
702,695	455,26
703,096	395,96
703,496	388,54
703,896	368,78
704,297	378,66
704,697	405,84
705,097	450,32
705,497	418,2
705,897	413,25
706,297	368,78
706,697	410,78
707,097	353,95
707,497	428,08
707,897	386,07
708,297	398,43
708,696	457,73
709,096	395,96
709,495	452,79
709,895	395,96
710,294	452,79
710,694	418,2
711,093	410,78
711,492	460,2
711,891	410,78
712,29	475,03
712,689	418,2
713,088	378,66
713,487	368,78
713,886	433,02
714,285	425,61
714,684	442,9
715,082	442,9
715,481	423,14
715,879	475,03
716,278	386,07
716,676	450,32
717,075	440,43
717,473	475,03
717,871	376,19
718,269	381,13
718,667	408,31
719,065	403,37
719,463	410,78
719,861	341,6
720,259	408,31
720,657	334,19
