Data from FLMS187131_14-47-06-175.txt Node
Date: Mon Dec 23 14:47:06 MSK 2024
User: FemtoLab1
Spectrometer: FLMS18713
Trigger mode: 0
Integration Time (sec): 9,490000E-1
Scans to average: 1
Electric dark correction enabled: true
Nonlinearity correction enabled: false
Boxcar width: 0
XAxis mode: Wavelengths
Number of Pixels in Spectrum: 2048
>>>>>Begin Spectral Data<<<<<
190,252	-94,2
190,715	-94,2
191,177	-94,2
191,64	-235,04
192,102	-42,31
192,565	-94,2
193,027	-67,02
193,49	-141,15
193,952	-44,78
194,415	-76,91
194,877	-59,61
195,339	14,52
195,802	-2,78
196,264	-10,19
196,726	-49,73
197,188	21,93
197,65	24,4
198,112	76,29
198,574	140,53
199,036	81,23
199,498	187,48
199,96	172,65
200,421	214,66
200,883	281,37
201,345	449,39
201,807	525,99
202,268	399,97
202,73	372,79
203,191	459,27
203,653	459,27
204,114	538,34
204,576	538,34
205,037	516,1
205,498	498,81
205,96	483,98
206,421	607,53
206,882	503,75
207,343	582,82
207,804	563,05
208,265	486,45
208,726	548,23
209,187	585,29
209,648	644,59
210,109	555,64
210,57	582,82
211,031	513,63
211,492	548,23
211,952	493,87
212,413	548,23
212,874	550,7
213,334	555,64
213,795	597,64
214,255	550,7
214,716	656,94
215,176	624,82
215,636	548,23
216,097	513,63
216,557	614,94
217,017	632,23
217,477	567,99
217,938	513,63
218,398	521,05
218,858	563,05
219,318	600,11
219,778	627,29
220,238	506,22
220,698	530,93
221,157	610
221,617	595,17
222,077	518,57
222,537	523,52
222,996	511,16
223,456	481,51
223,915	587,76
224,375	498,81
224,834	446,92
225,294	535,87
225,753	511,16
226,213	543,28
226,672	518,57
227,131	503,75
227,59	572,93
228,05	461,74
228,509	605,06
228,968	543,28
229,427	456,8
229,886	619,88
230,345	530,93
230,804	518,57
231,263	550,7
231,721	469,16
232,18	530,93
232,639	555,64
233,098	563,05
233,556	560,58
234,015	553,17
234,473	629,76
234,932	553,17
235,39	516,1
235,849	521,05
236,307	511,16
236,765	565,52
237,224	535,87
237,682	479,04
238,14	501,28
238,598	590,23
239,056	498,81
239,514	523,52
239,972	533,4
240,43	516,1
240,888	525,99
241,346	538,34
241,804	590,23
242,262	530,93
242,72	563,05
243,177	543,28
243,635	587,76
244,093	649,53
244,55	585,29
245,008	545,75
245,465	600,11
245,923	577,88
246,38	575,4
246,837	518,57
247,295	543,28
247,752	560,58
248,209	513,63
248,666	572,93
249,123	508,69
249,58	585,29
250,037	605,06
250,494	605,06
250,951	580,35
251,408	563,05
251,865	523,52
252,322	543,28
252,779	513,63
253,235	595,17
253,692	610
254,149	535,87
254,605	669,3
255,062	535,87
255,518	617,41
255,975	516,1
256,431	567,99
256,887	560,58
257,344	533,4
257,8	582,82
258,256	582,82
258,712	538,34
259,168	530,93
259,625	481,51
260,081	600,11
260,537	624,82
260,992	592,7
261,448	610
261,904	570,46
262,36	595,17
262,816	558,11
263,272	619,88
263,727	555,64
264,183	560,58
264,638	493,87
265,094	553,17
265,549	525,99
266,005	572,93
266,46	634,71
266,916	580,35
267,371	728,6
267,826	652
268,281	674,24
268,737	553,17
269,192	614,94
269,647	565,52
270,102	550,7
270,557	474,1
271,012	605,06
271,467	498,81
271,921	671,77
272,376	610
272,831	639,65
273,286	617,41
273,74	587,76
274,195	560,58
274,649	525,99
275,104	550,7
275,558	553,17
276,013	587,76
276,467	570,46
276,922	563,05
277,376	614,94
277,83	511,16
278,284	572,93
278,739	565,52
279,193	580,35
279,647	498,81
280,101	664,36
280,555	521,05
281,009	508,69
281,462	560,58
281,916	538,34
282,37	513,63
282,824	649,53
283,278	563,05
283,731	481,51
284,185	498,81
284,638	535,87
285,092	530,93
285,545	545,75
285,999	555,64
286,452	558,11
286,905	617,41
287,359	545,75
287,812	548,23
288,265	538,34
288,718	696,48
289,171	548,23
289,624	553,17
290,077	567,99
290,53	567,99
290,983	627,29
291,436	572,93
291,889	530,93
292,342	523,52
292,794	637,18
293,247	563,05
293,7	496,34
294,152	689,07
294,605	530,93
295,057	498,81
295,51	525,99
295,962	706,36
296,414	610
296,867	654,47
297,319	548,23
297,771	627,29
298,223	518,57
298,675	535,87
299,128	597,64
299,58	622,35
300,032	538,34
300,483	567,99
300,935	533,4
301,387	563,05
301,839	560,58
302,291	483,98
302,742	592,7
303,194	506,22
303,646	540,81
304,097	590,23
304,549	506,22
305	565,52
305,451	493,87
305,903	560,58
306,354	619,88
306,805	498,81
307,257	528,46
307,708	540,81
308,159	476,57
308,61	644,59
309,061	587,76
309,512	523,52
309,963	496,34
310,414	488,92
310,865	508,69
311,315	553,17
311,766	481,51
312,217	518,57
312,668	479,04
313,118	543,28
313,569	525,99
314,019	486,45
314,47	508,69
314,92	474,1
315,37	506,22
315,821	602,58
316,271	493,87
316,721	592,7
317,171	570,46
317,622	518,57
318,072	516,1
318,522	535,87
318,972	550,7
319,422	560,58
319,872	558,11
320,321	538,34
320,771	622,35
321,221	530,93
321,671	491,4
322,12	666,83
322,57	553,17
323,019	456,8
323,469	614,94
323,918	506,22
324,368	424,68
324,817	491,4
325,267	508,69
325,716	563,05
326,165	538,34
326,614	501,28
327,063	595,17
327,512	483,98
327,961	511,16
328,41	513,63
328,859	461,74
329,308	612,47
329,757	585,29
330,206	451,86
330,655	476,57
331,103	550,7
331,552	481,51
332,001	543,28
332,449	555,64
332,898	592,7
333,346	506,22
333,794	550,7
334,243	540,81
334,691	563,05
335,139	535,87
335,588	498,81
336,036	540,81
336,484	481,51
336,932	461,74
337,38	533,4
337,828	627,29
338,276	501,28
338,724	486,45
339,172	446,92
339,619	540,81
340,067	518,57
340,515	511,16
340,962	543,28
341,41	538,34
341,858	600,11
342,305	543,28
342,753	506,22
343,2	540,81
343,647	513,63
344,095	575,4
344,542	471,63
344,989	523,52
345,436	491,4
345,883	545,75
346,33	483,98
346,777	610
347,224	535,87
347,671	550,7
348,118	617,41
348,565	540,81
349,012	525,99
349,458	528,46
349,905	486,45
350,352	444,45
350,798	555,64
351,245	587,76
351,691	548,23
352,138	488,92
352,584	496,34
353,03	479,04
353,477	538,34
353,923	617,41
354,369	508,69
354,815	479,04
355,261	602,58
355,707	474,1
356,153	558,11
356,599	479,04
357,045	548,23
357,491	555,64
357,937	540,81
358,382	513,63
358,828	513,63
359,274	558,11
359,719	474,1
360,165	530,93
360,61	595,17
361,056	545,75
361,501	553,17
361,947	545,75
362,392	605,06
362,837	508,69
363,282	479,04
363,727	516,1
364,173	617,41
364,618	558,11
365,063	533,4
365,508	483,98
365,952	518,57
366,397	523,52
366,842	474,1
367,287	516,1
367,732	550,7
368,176	523,52
368,621	491,4
369,065	540,81
369,51	587,76
369,954	525,99
370,399	506,22
370,843	511,16
371,287	525,99
371,732	469,16
372,176	567,99
372,62	444,45
373,064	476,57
373,508	479,04
373,952	508,69
374,396	528,46
374,84	530,93
375,284	464,22
375,728	449,39
376,172	548,23
376,615	488,92
377,059	496,34
377,503	506,22
377,946	508,69
378,39	523,52
378,833	538,34
379,277	483,98
379,72	464,22
380,163	493,87
380,607	560,58
381,05	558,11
381,493	506,22
381,936	540,81
382,379	451,86
382,822	506,22
383,265	498,81
383,708	474,1
384,151	486,45
384,594	540,81
385,037	444,45
385,479	479,04
385,922	550,7
386,365	434,57
386,807	506,22
387,25	565,52
387,692	528,46
388,135	491,4
388,577	525,99
389,019	493,87
389,461	469,16
389,904	533,4
390,346	456,8
390,788	444,45
391,23	521,05
391,672	538,34
392,114	521,05
392,556	409,86
392,998	432,09
393,44	516,1
393,881	548,23
394,323	432,09
394,765	528,46
395,206	535,87
395,648	528,46
396,09	429,62
396,531	456,8
396,972	553,17
397,414	533,4
397,855	474,1
398,296	469,16
398,738	533,4
399,179	590,23
399,62	471,63
400,061	461,74
400,502	513,63
400,943	545,75
401,384	437,04
401,825	486,45
402,265	491,4
402,706	481,51
403,147	444,45
403,588	498,81
404,028	577,88
404,469	535,87
404,909	506,22
405,35	629,76
405,79	498,81
406,23	469,16
406,671	523,52
407,111	503,75
407,551	432,09
407,991	483,98
408,431	419,74
408,871	506,22
409,311	451,86
409,751	525,99
410,191	506,22
410,631	444,45
411,071	592,7
411,511	530,93
411,95	513,63
412,39	523,52
412,83	521,05
413,269	481,51
413,709	491,4
414,148	491,4
414,587	496,34
415,027	511,16
415,466	486,45
415,905	397,5
416,345	476,57
416,784	572,93
417,223	580,35
417,662	538,34
418,101	563,05
418,54	513,63
418,979	506,22
419,417	545,75
419,856	488,92
420,295	555,64
420,734	560,58
421,172	572,93
421,611	607,53
422,049	617,41
422,488	745,9
422,926	684,12
423,364	664,36
423,803	627,29
424,241	671,77
424,679	686,59
425,117	642,12
425,555	607,53
425,994	652
426,432	758,25
426,87	731,07
427,307	763,19
427,745	795,31
428,183	832,38
428,621	753,31
429,058	906,5
429,496	869,44
429,934	884,26
430,371	928,74
430,809	869,44
431,246	941,09
431,684	946,04
432,121	908,97
432,558	1079,46
432,995	960,86
433,433	1072,05
433,87	1123,94
434,307	1227,72
434,744	1205,48
435,181	1403,15
435,618	1590,93
436,055	1919,56
436,491	1926,97
436,928	1815,78
437,365	1598,35
437,801	1509,4
438,238	1497,04
438,675	1440,21
439,111	1440,21
439,548	1455,04
439,984	1613,17
440,42	1408,09
440,857	1484,69
441,293	1514,34
441,729	1645,29
442,165	1724,36
442,601	1739,19
443,037	1679,89
443,473	1739,19
443,909	1823,2
444,345	1758,95
444,781	1840,49
445,217	1944,27
445,652	1924,5
446,088	1951,68
446,524	2097,46
446,959	1996,16
447,395	2008,51
447,83	2023,34
448,266	2080,17
448,701	2129,58
449,136	2117,23
449,572	2134,53
450,007	2161,71
450,442	2198,77
450,877	2218,54
451,312	2188,89
451,747	2235,83
452,182	2102,41
452,617	2144,41
453,052	2055,46
453,486	2144,41
453,921	2149,35
454,356	2062,87
454,79	2062,87
455,225	1959,09
455,66	1988,74
456,094	1907,21
456,528	1880,03
456,963	1909,68
457,397	1897,32
457,831	1887,44
458,265	1870,14
458,7	1818,25
459,134	1679,89
459,568	1657,65
460,002	1662,59
460,436	1620,58
460,87	1647,76
461,303	1642,82
461,737	1618,11
462,171	1492,1
462,605	1588,46
463,038	1553,87
463,472	1531,63
463,905	1563,75
464,339	1474,8
464,772	1375,97
465,205	1432,8
465,639	1484,69
466,072	1358,67
466,505	1457,51
466,938	1368,56
467,371	1380,91
467,804	1299,37
468,237	1417,97
468,67	1408,09
469,103	1304,31
469,536	1282,07
469,969	1319,14
470,402	1230,19
470,834	1319,14
471,267	1296,9
471,699	1366,08
472,132	1205,48
472,564	1235,13
472,997	1210,42
473,429	1195,59
473,861	1249,95
474,294	1311,73
474,726	1193,12
475,158	1259,84
475,59	1198,07
476,022	1106,64
476,454	1198,07
476,886	1193,12
477,318	1141,24
477,75	1131,35
478,181	1104,17
478,613	1324,08
479,045	1163,47
479,476	1259,84
479,908	1225,24
480,339	1183,24
480,771	1128,88
481,202	1227,72
481,634	1245,01
482,065	1193,12
482,496	1277,13
482,927	1170,89
483,358	1215,36
483,789	1232,66
484,22	1257,37
484,651	1289,49
485,082	1274,66
485,513	1425,39
485,944	1375,97
486,375	1363,61
486,805	1353,73
487,236	1425,39
487,667	1289,49
488,097	1492,1
488,527	1420,44
488,958	1499,51
489,388	1556,34
489,819	1516,81
490,249	1494,57
490,679	1459,98
491,109	1583,52
491,539	1640,35
491,969	1674,94
492,399	1620,58
492,829	1712,01
493,259	1798,49
493,689	1771,31
494,119	1788,6
494,548	1870,14
494,978	2040,63
495,408	2077,7
495,837	2139,47
496,267	2221,01
496,696	2376,67
497,126	2599,05
497,555	2702,83
497,984	3024,04
498,413	3357,61
498,843	3844,37
499,272	4345,96
499,701	5060,04
500,13	5759,3
500,559	6446,2
500,988	7439,49
501,417	8309,24
501,845	9594,1
502,274	11600,45
502,703	13144,74
503,131	15464,89
503,56	18064,25
503,988	21582,78
504,417	24572,54
504,845	27433,81
505,274	30720,07
505,702	33166,24
506,13	36314,13
506,558	39662,17
506,987	41883,48
507,415	46116,09
507,843	49528,37
508,271	53054,3
508,699	56328,21
509,126	59313,03
509,554	61269,96
509,982	62176,77
510,41	63202,19
510,837	63202,19
511,265	63202,19
511,693	63202,19
512,12	62416,45
512,547	63130,53
512,975	62231,13
513,402	61467,63
513,829	61316,91
514,257	59374,8
514,684	58065,24
515,111	57847,8
515,538	55969,94
515,965	51875,7
516,392	49758,16
516,819	45510,73
517,246	42427,07
517,672	38785,01
518,099	34510,39
518,526	30742,31
518,952	27157,07
519,379	24478,64
519,805	21619,84
520,232	19097,08
520,658	16628,68
521,085	14412,3
521,511	12860,59
521,937	11237,23
522,363	10036,38
522,789	9117,22
523,215	8015,21
523,641	7348,07
524,067	6905,78
524,493	6468,44
524,919	6157,11
525,345	6021,21
525,771	5761,77
526,196	5606,11
526,622	5569,04
527,047	5517,15
527,473	5401,02
527,898	5433,14
528,324	5554,22
528,749	5509,74
529,174	5450,44
529,6	5603,63
530,025	5403,49
530,45	5349,13
530,875	5381,26
531,3	5534,45
531,725	5566,57
532,15	5438,09
532,575	5509,74
532,999	5519,62
533,424	5482,56
533,849	5573,98
534,273	5504,8
534,698	5534,45
535,122	5326,9
535,547	5462,79
535,971	5576,45
536,396	5373,84
536,82	5428,2
537,244	5452,91
537,668	5324,43
538,092	5569,04
538,517	5541,86
538,941	5440,56
539,364	5472,68
539,788	5615,99
540,212	5524,57
540,636	5546,8
541,06	5816,13
541,483	5536,92
541,907	5653,05
542,331	5586,34
542,754	5603,63
543,178	5672,82
543,601	5583,87
544,024	5695,06
544,448	5796,36
544,871	5803,77
545,294	5927,32
545,717	6890,96
546,14	8311,71
546,563	8944,26
546,986	8415,49
547,409	7760,71
547,832	7288,77
548,255	7044,15
548,677	6688,35
549,1	6364,66
549,522	6137,34
549,945	5969,32
550,368	6129,93
550,79	5976,74
551,212	5858,13
551,635	5833,43
552,057	5858,13
552,479	5717,29
552,901	5966,85
553,323	5788,95
553,745	6107,69
554,167	5996,5
554,589	5781,54
555,011	5952,03
555,433	5877,9
555,855	5902,61
556,277	5882,84
556,698	6085,45
557,12	5771,65
557,541	5877,9
557,963	5959,44
558,384	6216,41
558,806	5833,43
559,227	6001,44
559,648	6144,76
560,069	6179,35
560,49	5892,73
560,912	5944,61
561,333	5914,96
561,754	5907,55
562,174	6087,93
562,595	5796,36
563,016	6137,34
563,437	5895,2
563,858	5952,03
564,278	5986,62
564,699	6033,57
565,119	6016,27
565,54	5964,38
565,96	5826,01
566,38	5966,85
566,801	5751,89
567,221	5952,03
567,641	5984,15
568,061	5771,65
568,481	5976,74
568,901	6060,75
569,321	5855,66
569,741	6073,1
570,161	5907,55
570,581	6120,05
571,001	6107,69
571,42	6097,81
571,84	5964,38
572,259	6070,63
572,679	6137,34
573,098	6139,81
573,518	6179,35
573,937	6270,77
574,356	6147,23
574,775	6243,59
575,195	6211,47
575,614	6399,26
576,033	6137,34
576,452	6288,07
576,871	6362,19
577,29	6557,39
577,708	6433,85
578,127	6396,78
578,546	6384,43
578,964	6599,4
579,383	6720,47
579,801	6594,45
580,22	6246,06
580,638	6189,23
581,057	6120,05
581,475	6134,87
581,893	6013,8
582,311	5882,84
582,73	5895,2
583,148	5751,89
583,566	9001,09
583,984	5781,54
584,401	5618,46
584,819	5662,94
585,237	5714,82
585,655	5477,62
586,072	5423,26
586,49	5465,27
586,908	5482,56
587,325	5475,15
587,742	5277,48
588,16	5497,39
588,577	5225,59
588,994	5443,03
589,412	5457,85
589,829	5344,19
590,246	5183,59
590,663	5517,15
591,08	5359,02
591,497	5242,89
591,914	5314,54
592,33	5257,71
592,747	5267,6
593,164	5317,01
593,58	5228,06
593,997	5191
594,413	5363,96
594,83	5250,3
595,246	5378,78
595,663	5472,68
596,079	5247,83
596,495	5339,25
596,911	5351,6
597,327	5396,08
597,743	5230,53
598,159	5319,48
598,575	5410,91
598,991	5430,67
599,407	5304,66
599,823	5173,7
600,238	5119,34
600,654	5312,07
601,07	5079,81
601,485	4988,39
601,901	5010,62
602,316	4953,79
602,731	4867,31
603,147	4899,43
603,562	4884,61
603,977	4889,55
604,392	4719,06
604,807	4630,11
605,222	4701,77
605,637	4600,46
606,052	4612,81
606,467	4481,86
606,882	4639,99
607,296	4439,85
607,711	4180,41
608,125	4252,07
608,54	4180,41
608,954	4175,47
609,369	4210,06
609,783	4148,29
610,197	4002,51
610,612	3975,33
611,026	3824,6
611,44	3930,85
611,854	3950,62
612,268	3886,38
612,682	3829,55
613,096	3911,09
613,51	3743,07
613,923	3777,66
614,337	3740,59
614,751	3592,34
615,164	3535,51
615,578	3565,16
615,991	3444,09
616,405	3350,2
616,818	3498,45
617,231	3431,74
617,645	3298,31
618,058	3350,2
618,471	3219,24
618,884	3184,65
619,297	3172,29
619,71	3130,29
620,123	3214,3
620,536	3066,05
620,948	3053,69
621,361	3011,69
621,774	3031,45
622,186	3048,75
622,599	2935,09
623,011	2838,73
623,424	2952,39
623,836	2942,5
624,248	2836,25
624,661	2922,74
625,073	2692,94
625,485	2888,14
625,897	2730,01
626,309	2720,12
626,721	2769,54
627,133	2544,69
627,545	2539,75
627,956	2549,63
628,368	2623,76
628,78	2495,27
629,191	2495,27
629,603	2517,51
630,014	2413,74
630,426	2490,33
630,837	2440,91
631,248	2391,5
631,66	2374,2
632,071	2401,38
632,482	2270,42
632,893	2275,37
633,304	2497,75
633,715	2426,09
634,126	2161,71
634,536	2230,89
634,947	2174,06
635,358	2216,07
635,769	2139,47
636,179	2166,65
636,59	2072,75
637	2092,52
637,41	2050,52
637,821	2085,11
638,231	2055,46
638,641	2043,1
639,051	2077,7
639,462	2025,81
639,872	1949,21
640,282	2062,87
640,691	1973,92
641,101	1793,55
641,511	1820,73
641,921	1862,73
642,331	1889,91
642,74	1776,25
643,15	1818,25
643,559	1605,76
643,969	1808,37
644,378	1808,37
644,787	1815,78
645,197	1746,6
645,606	1739,19
646,015	1726,83
646,424	1800,96
646,833	1623,06
647,242	1652,71
647,651	1726,83
648,06	1647,76
648,469	1694,71
648,877	1600,82
649,286	1581,05
649,694	1603,29
650,103	1484,69
650,512	1551,4
650,92	1519,28
651,328	1484,69
651,737	1472,33
652,145	1462,45
652,553	1455,04
652,961	1445,15
653,369	1487,16
653,777	1390,79
654,185	1405,62
654,593	1398,21
655,001	1368,56
655,409	1442,68
655,816	1341,38
656,224	1393,26
656,631	1324,08
657,039	1264,78
657,446	1484,69
657,854	1306,78
658,261	1346,32
658,668	1237,6
659,076	1232,66
659,483	1240,07
659,89	1195,59
660,297	1161
660,704	1190,65
661,111	1217,83
661,518	1249,95
661,924	1222,77
662,331	1245,01
662,738	1195,59
663,144	1101,7
663,551	1101,7
663,957	1212,89
664,364	1114,06
664,77	1084,4
665,177	1096,76
665,583	1210,42
665,989	1158,53
666,395	1203,01
666,801	1054,75
667,207	1074,52
667,613	1081,93
668,019	948,51
668,425	1010,28
668,83	1054,75
669,236	1025,1
669,642	1111,58
670,047	1104,17
670,453	1200,54
670,858	1005,34
671,264	876,85
671,669	1037,46
672,074	916,39
672,48	928,74
672,885	1020,16
673,29	955,92
673,695	955,92
674,1	950,98
674,505	965,8
674,909	849,67
675,314	960,86
675,719	886,74
676,124	899,09
676,528	886,74
676,933	852,14
677,337	899,09
677,742	817,55
678,146	941,09
678,55	1000,4
678,955	884,26
679,359	797,78
679,763	906,5
680,167	834,85
680,571	829,9
680,975	824,96
681,379	773,07
681,782	797,78
682,186	775,55
682,59	753,31
682,993	805,2
683,397	676,71
683,8	871,91
684,204	785,43
684,607	805,2
685,011	726,13
685,414	691,54
685,817	780,49
686,22	785,43
686,623	775,55
687,026	765,66
687,429	787,9
687,832	718,72
688,235	711,3
688,638	740,95
689,04	785,43
689,443	674,24
689,845	649,53
690,248	713,77
690,65	694,01
691,053	696,48
691,455	686,59
691,857	748,37
692,26	726,13
692,662	666,83
693,064	736,01
693,466	726,13
693,868	792,84
694,27	572,93
694,671	652
695,073	676,71
695,475	681,65
695,877	681,65
696,278	610
696,68	669,3
697,081	899,09
697,483	723,66
697,884	708,83
698,285	619,88
698,686	624,82
699,087	743,42
699,489	627,29
699,89	728,6
700,291	565,52
700,691	661,89
701,092	518,57
701,493	627,29
701,894	580,35
702,294	577,88
702,695	575,4
703,096	582,82
703,496	553,17
703,896	535,87
704,297	617,41
704,697	548,23
705,097	530,93
705,497	565,52
705,897	548,23
706,297	652
706,697	518,57
707,097	634,71
707,497	597,64
707,897	582,82
708,297	540,81
708,696	642,12
709,096	538,34
709,495	671,77
709,895	550,7
710,294	575,4
710,694	535,87
711,093	558,11
711,492	595,17
711,891	595,17
712,29	503,75
