Data from FLMS187131_15-05-37-521.txt Node
Date: Mon Dec 23 15:05:37 MSK 2024
User: FemtoLab1
Spectrometer: FLMS18713
Trigger mode: 0
Integration Time (sec): 2,380000E-1
Scans to average: 1
Electric dark correction enabled: true
Nonlinearity correction enabled: false
Boxcar width: 0
XAxis mode: Wavelengths
Number of Pixels in Spectrum: 2048
>>>>>Begin Spectral Data<<<<<
190,252	-40,61
190,715	-40,61
191,177	-40,61
191,64	-102,39
192,102	-30,73
192,565	-72,74
193,027	-104,86
193,49	-72,74
193,952	-62,85
194,415	-102,39
194,877	-38,14
195,339	-90,03
195,802	6,33
196,264	45,87
196,726	1,39
197,188	82,93
197,65	70,57
198,112	21,16
198,574	100,22
199,036	58,22
199,498	157,05
199,96	127,4
200,421	112,58
200,883	275,66
201,345	273,19
201,807	268,24
202,268	302,84
202,73	330,02
203,191	292,95
203,653	327,55
204,114	369,55
204,576	342,37
205,037	334,96
205,498	386,85
205,96	369,55
206,421	404,14
206,882	431,32
207,343	421,44
207,804	473,33
208,265	537,57
208,726	376,96
209,187	431,32
209,648	480,74
210,109	490,62
210,57	443,68
211,031	349,78
211,492	465,91
211,952	396,73
212,413	426,38
212,874	421,44
213,334	374,49
213,795	414,03
214,255	448,62
214,716	468,39
215,176	451,09
215,636	416,5
216,097	431,32
216,557	389,32
217,017	423,91
217,477	411,56
217,938	448,62
218,398	480,74
218,858	433,79
219,318	406,61
219,778	431,32
220,238	443,68
220,698	446,15
221,157	381,9
221,617	404,14
222,077	460,97
222,537	386,85
222,996	414,03
223,456	332,49
223,915	391,79
224,375	441,21
224,834	423,91
225,294	406,61
225,753	317,66
226,213	411,56
226,672	441,21
227,131	460,97
227,59	468,39
228,05	369,55
228,509	386,85
228,968	416,5
229,427	396,73
229,886	379,43
230,345	428,85
230,804	359,67
231,263	369,55
231,721	409,08
232,18	453,56
232,639	404,14
233,098	428,85
233,556	409,08
234,015	473,33
234,473	426,38
234,932	485,68
235,39	423,91
235,849	493,09
236,307	436,26
236,765	364,61
237,224	404,14
237,682	460,97
238,14	391,79
238,598	374,49
239,056	465,91
239,514	376,96
239,972	406,61
240,43	416,5
240,888	396,73
241,346	418,97
241,804	458,5
242,262	295,42
242,72	384,38
243,177	458,5
243,635	394,26
244,093	448,62
244,55	426,38
245,008	416,5
245,465	458,5
245,923	451,09
246,38	438,73
246,837	428,85
247,295	458,5
247,752	463,44
248,209	396,73
248,666	409,08
249,123	414,03
249,58	423,91
250,037	401,67
250,494	478,27
250,951	428,85
251,408	396,73
251,865	475,8
252,322	401,67
252,779	423,91
253,235	438,73
253,692	369,55
254,149	404,14
254,605	446,15
255,062	510,39
255,518	399,2
255,975	354,72
256,431	347,31
256,887	399,2
257,344	460,97
257,8	443,68
258,256	446,15
258,712	379,43
259,168	507,92
259,625	441,21
260,081	401,67
260,537	414,03
260,992	463,44
261,448	414,03
261,904	416,5
262,36	470,86
262,816	431,32
263,272	416,5
263,727	460,97
264,183	458,5
264,638	426,38
265,094	441,21
265,549	443,68
266,005	391,79
266,46	463,44
266,916	438,73
267,371	495,56
267,826	470,86
268,281	475,8
268,737	451,09
269,192	443,68
269,647	433,79
270,102	391,79
270,557	493,09
271,012	436,26
271,467	426,38
271,921	460,97
272,376	426,38
272,831	456,03
273,286	438,73
273,74	438,73
274,195	421,44
274,649	379,43
275,104	428,85
275,558	453,56
276,013	364,61
276,467	475,8
276,922	394,26
277,376	473,33
277,83	465,91
278,284	416,5
278,739	473,33
279,193	446,15
279,647	530,16
280,101	458,5
280,555	418,97
281,009	460,97
281,462	473,33
281,916	426,38
282,37	458,5
282,824	438,73
283,278	431,32
283,731	446,15
284,185	433,79
284,638	448,62
285,092	478,27
285,545	426,38
285,999	453,56
286,452	475,8
286,905	458,5
287,359	428,85
287,812	448,62
288,265	411,56
288,718	507,92
289,171	428,85
289,624	423,91
290,077	414,03
290,53	485,68
290,983	438,73
291,436	443,68
291,889	416,5
292,342	480,74
292,794	404,14
293,247	443,68
293,7	416,5
294,152	522,74
294,605	421,44
295,057	485,68
295,51	421,44
295,962	453,56
296,414	465,91
296,867	505,45
297,319	414,03
297,771	416,5
298,223	411,56
298,675	458,5
299,128	418,97
299,58	406,61
300,032	374,49
300,483	396,73
300,935	433,79
301,387	478,27
301,839	399,2
302,291	391,79
302,742	438,73
303,194	460,97
303,646	433,79
304,097	438,73
304,549	465,91
305	428,85
305,451	495,56
305,903	465,91
306,354	438,73
306,805	423,91
307,257	418,97
307,708	458,5
308,159	443,68
308,61	414,03
309,061	465,91
309,512	423,91
309,963	463,44
310,414	416,5
310,865	451,09
311,315	404,14
311,766	436,26
312,217	456,03
312,668	428,85
313,118	431,32
313,569	436,26
314,019	468,39
314,47	443,68
314,92	493,09
315,37	475,8
315,821	458,5
316,271	507,92
316,721	470,86
317,171	367,08
317,622	418,97
318,072	458,5
318,522	414,03
318,972	426,38
319,422	448,62
319,872	468,39
320,321	458,5
320,771	485,68
321,221	448,62
321,671	428,85
322,12	433,79
322,57	404,14
323,019	542,51
323,469	448,62
323,918	389,32
324,368	426,38
324,817	431,32
325,267	465,91
325,716	483,21
326,165	483,21
326,614	443,68
327,063	386,85
327,512	379,43
327,961	460,97
328,41	500,51
328,859	465,91
329,308	448,62
329,757	443,68
330,206	465,91
330,655	446,15
331,103	418,97
331,552	409,08
332,001	431,32
332,449	483,21
332,898	414,03
333,346	463,44
333,794	483,21
334,243	441,21
334,691	431,32
335,139	426,38
335,588	401,67
336,036	416,5
336,484	460,97
336,932	470,86
337,38	443,68
337,828	515,33
338,276	404,14
338,724	376,96
339,172	510,39
339,619	446,15
340,067	438,73
340,515	396,73
340,962	453,56
341,41	436,26
341,858	522,74
342,305	473,33
342,753	423,91
343,2	436,26
343,647	399,2
344,095	465,91
344,542	505,45
344,989	431,32
345,436	478,27
345,883	483,21
346,33	433,79
346,777	418,97
347,224	411,56
347,671	502,98
348,118	456,03
348,565	470,86
349,012	502,98
349,458	490,62
349,905	436,26
350,352	453,56
350,798	470,86
351,245	446,15
351,691	470,86
352,138	438,73
352,584	362,14
353,03	421,44
353,477	483,21
353,923	490,62
354,369	468,39
354,815	381,9
355,261	446,15
355,707	401,67
356,153	406,61
356,599	409,08
357,045	446,15
357,491	418,97
357,937	406,61
358,382	359,67
358,828	409,08
359,274	453,56
359,719	522,74
360,165	498,04
360,61	428,85
361,056	448,62
361,501	456,03
361,947	470,86
362,392	493,09
362,837	418,97
363,282	493,09
363,727	409,08
364,173	421,44
364,618	436,26
365,063	374,49
365,508	411,56
365,952	394,26
366,397	465,91
366,842	394,26
367,287	446,15
367,732	406,61
368,176	456,03
368,621	468,39
369,065	480,74
369,51	414,03
369,954	438,73
370,399	473,33
370,843	453,56
371,287	426,38
371,732	441,21
372,176	414,03
372,62	475,8
373,064	386,85
373,508	423,91
373,952	480,74
374,396	401,67
374,84	404,14
375,284	478,27
375,728	421,44
376,172	480,74
376,615	446,15
377,059	480,74
377,503	409,08
377,946	451,09
378,39	465,91
378,833	423,91
379,277	362,14
379,72	379,43
380,163	406,61
380,607	448,62
381,05	406,61
381,493	446,15
381,936	448,62
382,379	448,62
382,822	483,21
383,265	507,92
383,708	423,91
384,151	423,91
384,594	369,55
385,037	480,74
385,479	418,97
385,922	456,03
386,365	416,5
386,807	418,97
387,25	401,67
387,692	512,86
388,135	493,09
388,577	374,49
389,019	379,43
389,461	436,26
389,904	460,97
390,346	451,09
390,788	554,87
391,23	478,27
391,672	448,62
392,114	436,26
392,556	441,21
392,998	399,2
393,44	522,74
393,881	438,73
394,323	409,08
394,765	406,61
395,206	364,61
395,648	436,26
396,09	473,33
396,531	448,62
396,972	433,79
397,414	480,74
397,855	404,14
398,296	396,73
398,738	374,49
399,179	500,51
399,62	436,26
400,061	441,21
400,502	468,39
400,943	391,79
401,384	421,44
401,825	478,27
402,265	391,79
402,706	468,39
403,147	451,09
403,588	421,44
404,028	409,08
404,469	470,86
404,909	433,79
405,35	446,15
405,79	421,44
406,23	394,26
406,671	401,67
407,111	426,38
407,551	414,03
407,991	431,32
408,431	456,03
408,871	495,56
409,311	418,97
409,751	406,61
410,191	411,56
410,631	394,26
411,071	438,73
411,511	418,97
411,95	438,73
412,39	421,44
412,83	441,21
413,269	488,15
413,709	428,85
414,148	438,73
414,587	456,03
415,027	495,56
415,466	418,97
415,905	438,73
416,345	404,14
416,784	423,91
417,223	379,43
417,662	339,9
418,101	438,73
418,54	441,21
418,979	470,86
419,417	507,92
419,856	473,33
420,295	453,56
420,734	515,33
421,172	520,27
421,611	493,09
422,049	510,39
422,488	510,39
422,926	517,8
423,364	460,97
423,803	490,62
424,241	456,03
424,679	515,33
425,117	409,08
425,555	475,8
425,994	480,74
426,432	453,56
426,87	488,15
427,307	414,03
427,745	552,39
428,183	500,51
428,621	460,97
429,058	527,69
429,496	535,1
429,934	554,87
430,371	544,98
430,809	525,22
431,246	507,92
431,684	631,46
432,121	527,69
432,558	502,98
432,995	498,04
433,433	616,64
433,87	515,33
434,307	611,7
434,744	628,99
435,181	666,06
435,618	710,53
436,055	819,25
436,491	871,14
436,928	782,19
437,365	695,71
437,801	638,88
438,238	614,17
438,675	680,88
439,111	641,35
439,548	730,3
439,984	713
440,42	764,89
440,857	732,77
441,293	727,83
441,729	782,19
442,165	631,46
442,601	750,06
443,037	764,89
443,473	757,48
443,909	769,83
444,345	767,36
444,781	752,54
445,217	814,31
445,652	722,89
446,088	811,84
446,524	787,13
446,959	858,78
447,395	908,2
447,83	824,19
448,266	799,48
448,701	801,95
449,136	905,73
449,572	816,78
450,007	898,32
450,442	836,55
450,877	967,5
451,312	821,72
451,747	826,66
452,182	910,67
452,617	920,56
453,052	851,37
453,486	764,89
453,921	836,55
454,356	839,02
454,79	878,55
455,225	848,9
455,66	834,07
456,094	885,96
456,528	797,01
456,963	816,78
457,397	797,01
457,831	774,77
458,265	777,24
458,7	747,59
459,134	821,72
459,568	797,01
460,002	784,66
460,436	752,54
460,87	717,94
461,303	685,82
461,737	678,41
462,171	685,82
462,605	690,76
463,038	782,19
463,472	651,23
463,905	688,29
464,339	680,88
464,772	683,35
465,205	690,76
465,639	752,54
466,072	633,93
466,505	688,29
466,938	646,29
467,371	638,88
467,804	626,52
468,237	596,87
468,67	604,28
469,103	606,75
469,536	688,29
469,969	606,75
470,402	685,82
470,834	715,47
471,267	621,58
471,699	609,22
472,132	671
472,564	651,23
472,997	621,58
473,429	624,05
473,861	628,99
474,294	648,76
474,726	633,93
475,158	589,46
475,59	675,94
476,022	624,05
476,454	663,58
476,886	611,7
477,318	609,22
477,75	586,99
478,181	631,46
478,613	616,64
479,045	619,11
479,476	594,4
479,908	656,17
480,339	589,46
480,771	641,35
481,202	678,41
481,634	582,05
482,065	616,64
482,496	673,47
482,927	648,76
483,358	614,17
483,789	624,05
484,22	606,75
484,651	685,82
485,082	638,88
485,513	606,75
485,944	611,7
486,375	651,23
486,805	690,76
487,236	663,58
487,667	567,22
488,097	599,34
488,527	638,88
488,958	648,76
489,388	636,4
489,819	685,82
490,249	638,88
490,679	609,22
491,109	693,23
491,539	700,65
491,969	651,23
492,399	732,77
492,829	772,3
493,259	705,59
493,689	806,89
494,119	742,65
494,548	730,3
494,978	725,36
495,408	730,3
495,837	851,37
496,267	809,37
496,696	806,89
497,126	730,3
497,555	762,42
497,984	789,6
498,413	806,89
498,843	816,78
499,272	797,01
499,701	755,01
500,13	895,85
500,559	881,02
500,988	881,02
501,417	861,25
501,845	873,61
502,274	935,38
502,703	878,55
503,131	878,55
503,56	893,38
503,988	858,78
504,417	1004,56
504,845	955,15
505,274	994,68
505,702	1036,69
506,13	969,97
506,558	1053,98
506,987	1063,87
507,415	1049,04
507,843	1128,11
508,271	1095,99
508,699	1058,92
509,126	1073,75
509,554	1061,39
509,982	1234,36
510,41	1137,99
510,837	1125,64
511,265	1207,18
511,693	1264,01
512,12	1182,47
512,547	1135,52
512,975	1142,93
513,402	1268,95
513,829	1207,18
514,257	1261,54
514,684	1296,13
515,111	1137,99
515,538	1293,66
515,965	1219,53
516,392	1276,36
516,819	1308,48
517,246	1283,77
517,672	1345,55
518,099	1318,37
518,526	1273,89
518,952	1333,19
519,379	1350,49
519,805	1432,03
520,232	1362,84
520,658	1518,51
521,085	1459,21
521,511	1424,61
521,937	1419,67
522,363	1444,38
522,789	1478,97
523,215	1419,67
523,641	1486,39
524,067	1493,8
524,493	1446,85
524,919	1523,45
525,345	1602,52
525,771	1634,64
526,196	1748,3
526,622	1590,16
527,047	1604,99
527,473	1713,71
527,898	1792,77
528,324	1735,94
528,749	1795,24
529,174	1861,96
529,6	1901,49
530,025	1941,03
530,45	1968,21
530,875	2101,63
531,3	2277,07
531,725	2430,26
532,15	2568,63
532,575	2870,07
532,999	3213,53
533,424	3833,72
533,849	4592,27
534,273	5200,11
534,698	5765,94
535,122	6497,32
535,547	7250,94
535,971	8110,8
536,396	8562,97
536,82	9141,15
537,244	9823,12
537,668	10275,29
538,092	10897,95
538,517	11913,48
538,941	13141,5
539,364	14396,7
539,788	16615,55
540,212	18616,96
540,636	21095,24
541,06	24329,62
541,483	26360,68
541,907	28982,27
542,331	31267,83
542,754	33360,66
543,178	34796,24
543,601	35278,06
544,024	36123,1
544,448	35359,6
544,871	35233,59
545,294	34895,08
545,717	34685,05
546,14	34069,81
546,563	34356,43
546,986	34391,02
547,409	34415,73
547,832	34709,76
548,255	35001,32
548,677	35090,28
549,1	35463,38
549,522	35465,85
549,945	35349,72
550,368	34946,97
550,79	33563,28
551,212	32688,59
551,635	31057,81
552,057	28960,04
552,479	27097
552,901	24309,85
553,323	22177,49
553,745	20284,8
554,167	17868,28
554,589	15577,78
555,011	13339,17
555,433	11619,44
555,855	10248,11
556,277	9020,08
556,698	7554,85
557,12	6440,49
557,541	5728,88
557,963	4745,47
558,384	4187,05
558,806	3621,22
559,227	3218,47
559,648	2744,06
560,069	2568,63
560,49	2259,77
560,912	2183,17
561,333	2081,87
561,754	2141,17
562,174	2151,05
562,595	2032,45
563,016	2012,68
563,437	2126,34
563,858	2121,4
564,278	2091,75
564,699	2165,88
565,119	2002,8
565,54	2059,63
565,96	1913,85
566,38	2037,39
566,801	2029,98
567,221	2037,39
567,641	2039,86
568,061	1983,03
568,481	1896,55
568,901	2010,21
569,321	1906,43
569,741	1970,68
570,161	1839,72
570,581	1938,56
571,001	1911,38
571,42	1790,3
571,84	1950,91
572,259	1921,26
572,679	1906,43
573,098	1901,49
573,518	1891,61
573,937	1980,56
574,356	1871,84
574,775	1844,66
575,195	1857,02
575,614	1797,72
576,033	1901,49
576,452	1906,43
576,871	1978,09
577,29	1943,5
577,708	1913,85
578,127	1891,61
578,546	1859,49
578,964	1876,78
579,383	1958,32
579,801	1923,73
580,22	1960,79
580,638	1901,49
581,057	1869,37
581,475	1891,61
581,893	1815,01
582,311	1881,73
582,73	1871,84
583,148	1728,53
583,566	2573,57
583,984	1775,48
584,401	1679,11
584,819	1708,76
585,237	1795,24
585,655	1674,17
586,072	1656,88
586,49	1666,76
586,908	1622,28
587,325	1622,28
587,742	1629,7
588,16	1661,82
588,577	1651,93
588,994	1560,51
589,412	1679,11
589,829	1651,93
590,246	1659,35
590,663	1624,75
591,08	1567,92
591,497	1642,05
591,914	1565,45
592,33	1642,05
592,747	1624,75
593,164	1567,92
593,58	1585,22
593,997	1629,7
594,413	1604,99
594,83	1669,23
595,246	1612,4
595,663	1585,22
596,079	1632,17
596,495	1590,16
596,911	1612,4
597,327	1565,45
597,743	1713,71
598,159	1733,47
598,575	1656,88
598,991	1624,75
599,407	1664,29
599,823	1698,88
600,238	1580,28
600,654	1637,11
601,07	1624,75
601,485	1600,05
601,901	1671,7
602,316	1607,46
602,731	1572,87
603,147	1629,7
603,562	1617,34
603,977	1600,05
604,392	1469,09
604,807	1476,5
605,222	1607,46
605,637	1597,57
606,052	1533,33
606,467	1533,33
606,882	1550,63
607,296	1553,1
607,711	1548,16
608,125	1367,78
608,54	1456,73
608,954	1404,85
609,369	1382,61
609,783	1488,86
610,197	1273,89
610,612	1229,41
611,026	1264,01
611,44	1231,89
611,854	1350,49
612,268	1291,19
612,682	1229,41
613,096	1291,19
613,51	1296,13
613,923	1202,23
614,337	1177,53
614,751	1140,46
615,164	1236,83
615,578	1273,89
615,991	1207,18
616,405	1170,11
616,818	1244,24
617,231	1105,87
617,645	1137,99
618,058	1145,4
618,471	1175,06
618,884	1034,22
619,297	1073,75
619,71	1155,29
620,123	1157,76
620,536	1177,53
620,948	1123,17
621,361	1009,51
621,774	1004,56
622,186	1071,28
622,599	1056,45
623,011	974,91
623,424	1026,8
623,836	999,62
624,248	1056,45
624,661	1073,75
625,073	1049,04
625,485	1098,46
625,897	1002,09
626,309	994,68
626,721	1009,51
627,133	982,33
627,545	982,33
627,956	987,27
628,368	969,97
628,78	992,21
629,191	898,32
629,603	967,5
630,014	960,09
630,426	942,79
630,837	937,85
631,248	885,96
631,66	974,91
632,071	893,38
632,482	957,62
632,893	925,5
633,304	871,14
633,715	910,67
634,126	932,91
634,536	876,08
634,947	905,73
635,358	888,43
635,769	843,96
636,179	893,38
636,59	846,43
637	866,2
637,41	811,84
637,821	873,61
638,231	794,54
638,641	747,59
639,051	722,89
639,462	819,25
639,872	834,07
640,282	740,18
640,691	777,24
641,101	829,13
641,511	881,02
641,921	784,66
642,331	811,84
642,74	806,89
643,15	787,13
643,559	680,88
643,969	769,83
644,378	759,95
644,787	737,71
645,197	698,18
645,606	772,3
646,015	846,43
646,424	811,84
646,833	747,59
647,242	797,01
647,651	720,41
648,06	762,42
648,469	690,76
648,877	688,29
649,286	708,06
649,694	742,65
650,103	690,76
650,512	668,53
650,92	678,41
651,328	678,41
651,737	680,88
652,145	619,11
652,553	767,36
652,961	693,23
653,369	604,28
653,777	742,65
654,185	633,93
654,593	628,99
655,001	725,36
655,409	631,46
655,816	661,11
656,224	636,4
656,631	668,53
657,039	641,35
657,446	762,42
657,854	643,82
658,261	631,46
658,668	540,04
659,076	574,63
659,483	586,99
659,89	651,23
660,297	633,93
660,704	614,17
661,111	685,82
661,518	646,29
661,924	658,64
662,331	591,93
662,738	611,7
663,144	577,1
663,551	591,93
663,957	594,4
664,364	579,57
664,77	564,75
665,177	626,52
665,583	653,7
665,989	557,34
666,395	584,52
666,801	572,16
667,207	577,1
667,613	562,28
668,019	626,52
668,425	562,28
668,83	475,8
669,236	557,34
669,642	574,63
670,047	582,05
670,453	604,28
670,858	601,81
671,264	542,51
671,669	542,51
672,074	579,57
672,48	527,69
672,885	500,51
673,29	500,51
673,695	589,46
674,1	554,87
674,505	601,81
674,909	554,87
675,314	574,63
675,719	549,92
676,124	636,4
676,528	500,51
676,933	542,51
677,337	582,05
677,742	530,16
678,146	547,45
678,55	510,39
678,955	441,21
679,359	554,87
679,763	470,86
680,167	517,8
680,571	559,81
680,975	515,33
681,379	572,16
681,782	485,68
682,186	547,45
682,59	490,62
682,993	522,74
683,397	554,87
683,8	483,21
684,204	488,15
684,607	485,68
685,011	465,91
685,414	532,63
685,817	485,68
686,22	512,86
686,623	507,92
687,026	512,86
687,429	495,56
687,832	527,69
688,235	436,26
688,638	517,8
689,04	530,16
689,443	483,21
689,845	493,09
690,248	453,56
690,65	394,26
691,053	495,56
691,455	505,45
691,857	460,97
692,26	485,68
692,662	475,8
693,064	532,63
693,466	448,62
693,868	431,32
694,27	463,44
694,671	478,27
695,073	480,74
695,475	483,21
695,877	569,69
696,278	451,09
696,68	458,5
697,081	470,86
697,483	485,68
697,884	510,39
698,285	470,86
698,686	483,21
699,087	544,98
699,489	537,57
699,89	500,51
700,291	470,86
700,691	485,68
701,092	438,73
701,493	438,73
701,894	416,5
702,294	515,33
702,695	463,44
703,096	418,97
703,496	468,39
703,896	399,2
704,297	468,39
704,697	421,44
705,097	478,27
705,497	414,03
705,897	478,27
706,297	394,26
706,697	470,86
707,097	478,27
707,497	421,44
707,897	502,98
708,297	332,49
708,696	456,03
709,096	473,33
709,495	456,03
709,895	451,09
710,294	480,74
710,694	468,39
711,093	426,38
711,492	404,14
711,891	396,73
712,29	485,68
712,689	443,68
713,088	369,55
713,487	431,32
713,886	488,15
714,285	493,09
714,684	500,51
715,082	384,38
715,481	446,15
715,879	448,62
716,278	465,91
716,676	465,91
717,075	500,51
717,473	443,68
717,871	448,62
718,269	443,68
