Data from FLMS187131_12-56-50-134.txt Node
Date: Mon Dec 23 12:56:50 MSK 2024
User: FemtoLab1
Spectrometer: FLMS18713
Trigger mode: 0
Integration Time (sec): 9,000000E-2
Scans to average: 1
Electric dark correction enabled: true
Nonlinearity correction enabled: false
Boxcar width: 0
XAxis mode: Wavelengths
Number of Pixels in Spectrum: 2048
>>>>>Begin Spectral Data<<<<<
190,252	-73,97
190,715	-73,97
191,177	-73,97
191,64	-120,92
192,102	-81,38
192,565	-66,56
193,027	-103,62
193,49	-64,09
193,952	-167,87
194,415	-29,5
194,877	-51,73
195,339	-66,56
195,802	-36,91
196,264	5,1
196,726	-39,38
197,188	0,15
197,65	116,29
198,112	136,05
198,574	145,94
199,036	69,34
199,498	153,35
199,96	173,12
200,421	123,7
200,883	173,12
201,345	222,53
201,807	220,06
202,268	284,3
202,73	289,25
203,191	279,36
203,653	358,43
204,114	328,78
204,576	271,95
205,037	368,31
205,498	417,73
205,96	417,73
206,421	447,38
206,882	427,62
207,343	407,85
207,804	407,85
208,265	323,84
208,726	393,02
209,187	393,02
209,648	457,27
210,109	388,08
210,57	459,74
211,031	444,91
211,492	395,49
211,952	393,02
212,413	368,31
212,874	422,67
213,334	435,03
213,795	439,97
214,255	385,61
214,716	452,32
215,176	385,61
215,636	405,38
216,097	412,79
216,557	375,73
217,017	395,49
217,477	375,73
217,938	405,38
218,398	390,55
218,858	459,74
219,318	430,09
219,778	420,2
220,238	370,79
220,698	378,2
221,157	388,08
221,617	397,97
222,077	378,2
222,537	407,85
222,996	343,61
223,456	313,96
223,915	373,26
224,375	393,02
224,834	383,14
225,294	430,09
225,753	326,31
226,213	464,68
226,672	425,14
227,131	355,96
227,59	383,14
228,05	395,49
228,509	400,44
228,968	380,67
229,427	390,55
229,886	355,96
230,345	405,38
230,804	402,91
231,263	422,67
231,721	343,61
232,18	326,31
232,639	395,49
233,098	341,14
233,556	390,55
234,015	489,39
234,473	435,03
234,932	405,38
235,39	358,43
235,849	353,49
236,307	481,97
236,765	449,85
237,224	375,73
237,682	442,44
238,14	365,84
238,598	351,02
239,056	427,62
239,514	390,55
239,972	430,09
240,43	420,2
240,888	397,97
241,346	402,91
241,804	363,37
242,262	383,14
242,72	353,49
243,177	388,08
243,635	410,32
244,093	439,97
244,55	410,32
245,008	360,9
245,465	432,56
245,923	373,26
246,38	333,72
246,837	393,02
247,295	383,14
247,752	375,73
248,209	370,79
248,666	370,79
249,123	469,62
249,58	410,32
250,037	385,61
250,494	412,79
250,951	432,56
251,408	328,78
251,865	378,2
252,322	410,32
252,779	415,26
253,235	400,44
253,692	427,62
254,149	397,97
254,605	402,91
255,062	395,49
255,518	417,73
255,975	397,97
256,431	437,5
256,887	336,19
257,344	425,14
257,8	353,49
258,256	437,5
258,712	437,5
259,168	410,32
259,625	415,26
260,081	390,55
260,537	486,92
260,992	397,97
261,448	457,27
261,904	360,9
262,36	437,5
262,816	427,62
263,272	412,79
263,727	462,21
264,183	477,03
264,638	368,31
265,094	378,2
265,549	425,14
266,005	410,32
266,46	397,97
266,916	457,27
267,371	378,2
267,826	420,2
268,281	417,73
268,737	397,97
269,192	417,73
269,647	368,31
270,102	373,26
270,557	393,02
271,012	338,66
271,467	373,26
271,921	452,32
272,376	395,49
272,831	494,33
273,286	437,5
273,74	390,55
274,195	415,26
274,649	449,85
275,104	430,09
275,558	427,62
276,013	402,91
276,467	425,14
276,922	467,15
277,376	432,56
277,83	442,44
278,284	385,61
278,739	405,38
279,193	373,26
279,647	435,03
280,101	449,85
280,555	390,55
281,009	454,8
281,462	444,91
281,916	484,45
282,37	486,92
282,824	521,51
283,278	390,55
283,731	410,32
284,185	444,91
284,638	412,79
285,092	425,14
285,545	437,5
285,999	437,5
286,452	410,32
286,905	444,91
287,359	474,56
287,812	501,74
288,265	397,97
288,718	501,74
289,171	405,38
289,624	395,49
290,077	449,85
290,53	457,27
290,983	415,26
291,436	459,74
291,889	420,2
292,342	457,27
292,794	442,44
293,247	449,85
293,7	373,26
294,152	412,79
294,605	417,73
295,057	420,2
295,51	447,38
295,962	439,97
296,414	430,09
296,867	407,85
297,319	477,03
297,771	427,62
298,223	437,5
298,675	373,26
299,128	422,67
299,58	477,03
300,032	447,38
300,483	457,27
300,935	415,26
301,387	395,49
301,839	472,09
302,291	407,85
302,742	407,85
303,194	355,96
303,646	410,32
304,097	375,73
304,549	412,79
305	407,85
305,451	469,62
305,903	472,09
306,354	336,19
306,805	415,26
307,257	402,91
307,708	422,67
308,159	474,56
308,61	459,74
309,061	420,2
309,512	444,91
309,963	430,09
310,414	400,44
310,865	407,85
311,315	427,62
311,766	410,32
312,217	338,66
312,668	447,38
313,118	452,32
313,569	501,74
314,019	437,5
314,47	432,56
314,92	363,37
315,37	439,97
315,821	444,91
316,271	378,2
316,721	439,97
317,171	425,14
317,622	452,32
318,072	375,73
318,522	427,62
318,972	388,08
319,422	435,03
319,872	444,91
320,321	385,61
320,771	427,62
321,221	412,79
321,671	405,38
322,12	444,91
322,57	444,91
323,019	378,2
323,469	509,15
323,918	395,49
324,368	444,91
324,817	464,68
325,267	462,21
325,716	412,79
326,165	430,09
326,614	425,14
327,063	444,91
327,512	439,97
327,961	420,2
328,41	457,27
328,859	449,85
329,308	444,91
329,757	407,85
330,206	457,27
330,655	368,31
331,103	462,21
331,552	395,49
332,001	417,73
332,449	402,91
332,898	427,62
333,346	430,09
333,794	435,03
334,243	407,85
334,691	420,2
335,139	412,79
335,588	432,56
336,036	380,67
336,484	432,56
336,932	432,56
337,38	365,84
337,828	410,32
338,276	358,43
338,724	474,56
339,172	449,85
339,619	405,38
340,067	452,32
340,515	447,38
340,962	449,85
341,41	447,38
341,858	454,8
342,305	435,03
342,753	368,31
343,2	422,67
343,647	442,44
344,095	464,68
344,542	474,56
344,989	452,32
345,436	430,09
345,883	415,26
346,33	415,26
346,777	464,68
347,224	449,85
347,671	447,38
348,118	390,55
348,565	474,56
349,012	514,1
349,458	447,38
349,905	432,56
350,352	462,21
350,798	420,2
351,245	420,2
351,691	427,62
352,138	439,97
352,584	454,8
353,03	481,97
353,477	462,21
353,923	417,73
354,369	373,26
354,815	425,14
355,261	439,97
355,707	474,56
356,153	402,91
356,599	390,55
357,045	410,32
357,491	427,62
357,937	390,55
358,382	439,97
358,828	467,15
359,274	432,56
359,719	412,79
360,165	452,32
360,61	472,09
361,056	486,92
361,501	479,5
361,947	415,26
362,392	360,9
362,837	439,97
363,282	486,92
363,727	477,03
364,173	415,26
364,618	373,26
365,063	422,67
365,508	442,44
365,952	422,67
366,397	514,1
366,842	459,74
367,287	420,2
367,732	415,26
368,176	444,91
368,621	395,49
369,065	457,27
369,51	467,15
369,954	410,32
370,399	484,45
370,843	410,32
371,287	368,31
371,732	383,14
372,176	481,97
372,62	385,61
373,064	407,85
373,508	472,09
373,952	469,62
374,396	479,5
374,84	439,97
375,284	383,14
375,728	435,03
376,172	452,32
376,615	358,43
377,059	348,55
377,503	464,68
377,946	489,39
378,39	449,85
378,833	378,2
379,277	457,27
379,72	400,44
380,163	407,85
380,607	521,51
381,05	402,91
381,493	452,32
381,936	447,38
382,379	457,27
382,822	390,55
383,265	474,56
383,708	459,74
384,151	393,02
384,594	447,38
385,037	407,85
385,479	439,97
385,922	397,97
386,365	370,79
386,807	447,38
387,25	442,44
387,692	432,56
388,135	363,37
388,577	417,73
389,019	452,32
389,461	464,68
389,904	425,14
390,346	400,44
390,788	417,73
391,23	439,97
391,672	390,55
392,114	439,97
392,556	348,55
392,998	437,5
393,44	333,72
393,881	427,62
394,323	388,08
394,765	383,14
395,206	397,97
395,648	435,03
396,09	452,32
396,531	491,86
396,972	519,04
397,414	437,5
397,855	410,32
398,296	390,55
398,738	425,14
399,179	442,44
399,62	437,5
400,061	397,97
400,502	447,38
400,943	410,32
401,384	355,96
401,825	393,02
402,265	393,02
402,706	422,67
403,147	407,85
403,588	464,68
404,028	435,03
404,469	425,14
404,909	444,91
405,35	427,62
405,79	375,73
406,23	459,74
406,671	449,85
407,111	360,9
407,551	427,62
407,991	444,91
408,431	457,27
408,871	427,62
409,311	422,67
409,751	407,85
410,191	400,44
410,631	402,91
411,071	437,5
411,511	410,32
411,95	506,68
412,39	472,09
412,83	400,44
413,269	432,56
413,709	383,14
414,148	437,5
414,587	425,14
415,027	457,27
415,466	415,26
415,905	489,39
416,345	432,56
416,784	459,74
417,223	412,79
417,662	499,27
418,101	343,61
418,54	504,21
418,979	373,26
419,417	474,56
419,856	442,44
420,295	425,14
420,734	484,45
421,172	435,03
421,611	430,09
422,049	430,09
422,488	454,8
422,926	469,62
423,364	444,91
423,803	511,63
424,241	472,09
424,679	449,85
425,117	368,31
425,555	430,09
425,994	449,85
426,432	439,97
426,87	388,08
427,307	427,62
427,745	506,68
428,183	393,02
428,621	516,57
429,058	481,97
429,496	462,21
429,934	521,51
430,371	504,21
430,809	422,67
431,246	469,62
431,684	469,62
432,121	415,26
432,558	464,68
432,995	469,62
433,433	491,86
433,87	457,27
434,307	519,04
434,744	489,39
435,181	526,45
435,618	454,8
436,055	541,28
436,491	481,97
436,928	541,28
437,365	472,09
437,801	509,15
438,238	514,1
438,675	509,15
439,111	474,56
439,548	538,81
439,984	501,74
440,42	533,86
440,857	496,8
441,293	499,27
441,729	561,04
442,165	499,27
442,601	583,28
443,037	580,81
443,473	595,64
443,909	593,16
444,345	556,1
444,781	583,28
445,217	578,34
445,652	556,1
446,088	568,46
446,524	620,34
446,959	533,86
447,395	546,22
447,83	501,74
448,266	556,1
448,701	568,46
449,136	598,11
449,572	536,33
450,007	583,28
450,442	600,58
450,877	625,29
451,312	620,34
451,747	551,16
452,182	568,46
452,617	583,28
453,052	610,46
453,486	573,4
453,921	558,57
454,356	575,87
454,79	598,11
455,225	553,63
455,66	558,57
456,094	565,98
456,528	565,98
456,963	551,16
457,397	504,21
457,831	635,17
458,265	531,39
458,7	556,1
459,134	494,33
459,568	538,81
460,002	546,22
460,436	553,63
460,87	551,16
461,303	533,86
461,737	531,39
462,171	521,51
462,605	612,93
463,038	538,81
463,472	519,04
463,905	568,46
464,339	538,81
464,772	558,57
465,205	590,69
465,639	481,97
466,072	565,98
466,505	486,92
466,938	536,33
467,371	514,1
467,804	464,68
468,237	516,57
468,67	526,45
469,103	526,45
469,536	504,21
469,969	523,98
470,402	477,03
470,834	556,1
471,267	472,09
471,699	514,1
472,132	573,4
472,564	486,92
472,997	457,27
473,429	598,11
473,861	583,28
474,294	533,86
474,726	536,33
475,158	526,45
475,59	511,63
476,022	469,62
476,454	439,97
476,886	457,27
477,318	496,8
477,75	543,75
478,181	467,15
478,613	536,33
479,045	516,57
479,476	556,1
479,908	543,75
480,339	536,33
480,771	491,86
481,202	536,33
481,634	457,27
482,065	548,69
482,496	516,57
482,927	489,39
483,358	526,45
483,789	477,03
484,22	501,74
484,651	496,8
485,082	521,51
485,513	570,93
485,944	551,16
486,375	459,74
486,805	551,16
487,236	598,11
487,667	494,33
488,097	553,63
488,527	615,4
488,958	533,86
489,388	585,75
489,819	533,86
490,249	519,04
490,679	635,17
491,109	573,4
491,539	506,68
491,969	543,75
492,399	491,86
492,829	570,93
493,259	593,16
493,689	565,98
494,119	523,98
494,548	538,81
494,978	523,98
495,408	607,99
495,837	556,1
496,267	573,4
496,696	516,57
497,126	607,99
497,555	649,99
497,984	580,81
498,413	573,4
498,843	536,33
499,272	645,05
499,701	548,69
500,13	652,47
500,559	603,05
500,988	590,69
501,417	625,29
501,845	649,99
502,274	667,29
502,703	622,81
503,131	627,76
503,56	590,69
503,988	538,81
504,417	694,47
504,845	598,11
505,274	620,34
505,702	652,47
506,13	719,18
506,558	719,18
506,987	729,06
507,415	716,71
507,843	746,36
508,271	687,06
508,699	677,17
509,126	627,76
509,554	704,35
509,982	793,31
510,41	793,31
510,837	793,31
511,265	748,83
511,693	743,89
512,12	842,72
512,547	783,42
512,975	773,54
513,402	756,24
513,829	808,13
514,257	852,61
514,684	902,02
515,111	862,49
515,538	892,14
515,965	889,67
516,392	877,31
516,819	961,32
517,246	981,09
517,672	1010,74
518,099	1097,22
518,526	1225,71
518,952	1420,91
519,379	1569,16
519,805	1905,2
520,232	2204,17
520,658	2535,27
521,085	2915,79
521,511	3518,68
521,937	4086,98
522,363	4793,65
522,789	5562,09
523,215	6202,05
523,641	7145,92
524,067	8289,94
524,493	9256,05
524,919	10170,27
525,345	11190,74
525,771	12191,45
526,196	13342,88
526,622	14452,3
527,047	15186,15
527,473	16270,86
527,898	17002,24
528,324	17874,46
528,749	18578,66
529,174	19181,55
529,6	19715,26
530,025	20234,14
530,45	20683,84
530,875	20963,05
531,3	21684,55
531,725	21546,18
532,15	21840,21
532,575	22326,97
532,999	22465,34
533,424	22791,5
533,849	23088
534,273	22959,52
534,698	23300,5
535,122	23038,59
535,547	23008,94
535,971	22821,15
536,396	22751,97
536,82	22260,26
537,244	22603,71
537,668	22979,29
538,092	23606,89
538,517	24456,87
538,941	24997,99
539,364	25692,31
539,788	26448,39
540,212	27068,58
540,636	26875,85
541,06	26208,72
541,483	25408,16
541,907	24946,1
542,331	24530,99
542,754	24024,47
543,178	24422,28
543,601	26053,05
544,024	28103,88
544,448	30589,58
544,871	34345,31
545,294	37157,16
545,717	40354,47
546,14	42412,71
546,563	43645,68
546,986	43803,81
547,409	42763,58
547,832	40903,01
548,255	38548,26
548,677	35620,28
549,1	32976,44
549,522	30278,25
549,945	28392,97
550,368	26742,43
550,79	26003,64
551,212	25620,65
551,635	26020,93
552,057	27515,81
552,479	29116,94
552,901	31291,31
553,323	34397,2
553,745	37142,34
554,167	39998,67
554,589	42449,78
555,011	44258,46
555,433	46207,98
555,855	47811,57
556,277	49170,55
556,698	49313,86
557,12	49511,53
557,541	49716,62
557,963	49474,47
558,384	48715,91
558,806	47586,72
559,227	46618,14
559,648	44992,31
560,069	43275,05
560,49	41377,42
560,912	38852,18
561,333	37102,8
561,754	34782,65
562,174	33680,64
562,595	32153,64
563,016	31409,91
563,437	30243,66
563,858	29969,39
564,278	30480,86
564,699	30957,74
565,119	30960,21
565,54	31241,89
565,96	31723,71
566,38	31844,78
566,801	31787,95
567,221	31264,13
567,641	30288,13
568,061	29092,23
568,481	28385,56
568,901	27567,7
569,321	26717,72
569,741	25640,42
570,161	24335,8
570,581	23409,22
571,001	23095,42
571,42	23055,88
571,84	23703,25
572,259	24059,06
572,679	24943,63
573,098	25697,25
573,518	26359,44
573,937	26302,61
574,356	26683,13
574,775	27061,17
575,195	27105,65
575,614	26809,14
576,033	26579,35
576,452	26502,75
576,871	26739,96
577,29	26900,56
577,708	26826,44
578,127	26683,13
578,546	27444,16
578,964	27785,14
579,383	27723,36
579,801	28383,09
580,22	29042,81
580,638	30406,73
581,057	31041,75
581,475	31068,93
581,893	32111,64
582,311	31333,31
582,73	31254,24
583,148	30673,59
583,566	31199,88
583,984	30816,9
584,401	31101,05
584,819	31560,63
585,237	32114,11
585,655	32694,76
586,072	33248,24
586,49	34063,63
586,908	33987,03
587,325	34209,41
587,742	34226,71
588,16	34305,77
588,577	34382,37
588,994	34315,66
589,412	33977,15
589,829	33994,44
590,246	34325,54
590,663	34829,6
591,08	34399,67
591,497	35022,33
591,914	34886,43
592,33	34933,38
592,747	35259,53
593,164	34930,9
593,58	35365,78
593,997	35190,35
594,413	36759,35
594,83	36892,78
595,246	37382,01
595,663	37802,06
596,079	38711,34
596,495	39072,09
596,911	39954,19
597,327	40134,57
597,743	39064,68
598,159	38654,51
598,575	37288,12
598,991	37125,04
599,407	35738,88
599,823	35568,39
600,238	34355,19
600,654	32917,14
601,07	31842,31
601,485	30559,93
601,901	29136,7
602,316	28489,34
602,731	27918,56
603,147	28227,42
603,562	27792,55
603,977	27748,07
604,392	28274,37
604,807	27659,12
605,222	27950,68
605,637	27505,93
606,052	26539,82
606,467	25252,49
606,882	24409,92
607,296	23211,55
607,711	22336,86
608,125	21958,81
608,54	21210,14
608,954	21645,01
609,369	21766,09
609,783	22361,57
610,197	22643,25
610,612	23463,58
611,026	23597
611,44	23881,15
611,854	23639,01
612,268	22712,43
612,682	22282,5
613,096	21637,6
613,51	20486,17
613,923	19712,79
614,337	19920,34
614,751	19527,47
615,164	19863,51
615,578	20330,51
615,991	20762,91
616,405	21365,8
616,818	21882,22
617,231	22317,09
617,645	22450,52
618,058	22831,03
618,471	23083,06
618,884	22964,46
619,297	22396,16
619,71	21973,64
620,123	22079,89
620,536	21390,51
620,948	21207,67
621,361	21155,78
621,774	20891,4
622,186	20384,87
622,599	19685,61
623,011	18927,05
623,424	18242,62
623,836	17839,87
624,248	17288,86
624,661	17528,54
625,073	17187,56
625,485	17879,4
625,897	18136,37
626,309	18894,93
626,721	19285,33
627,133	19954,94
627,545	20315,68
627,956	20972,94
628,368	21081,65
628,78	21148,37
629,191	21175,55
629,603	20837,04
630,014	20177,31
630,426	19465,7
630,837	18951,76
631,248	18563,83
631,66	18059,77
632,071	17204,85
632,482	16755,15
632,893	16532,77
633,304	15964,47
633,715	16013,89
634,126	15368,99
634,536	15124,38
634,947	14484,42
635,358	14091,55
635,769	13948,24
636,179	13323,11
636,59	12969,77
637	12554,67
637,41	12394,06
637,821	12040,73
638,231	11914,71
638,641	12080,26
639,051	12179,09
639,462	12018,49
639,872	12055,55
640,282	11956,72
640,691	11768,93
641,101	11516,9
641,511	11277,22
641,921	11084,5
642,331	10511,25
642,74	10160,39
643,15	9861,41
643,559	9567,38
643,969	9139,92
644,378	8863,18
644,787	8411,01
645,197	8129,33
645,606	7990,96
646,015	7649,98
646,424	7610,45
646,833	7600,56
647,242	7271,94
647,651	7168,16
648,06	7333,71
648,469	7427,6
648,877	7407,84
649,286	7565,97
649,694	7756,23
650,103	7773,53
650,512	7924,25
650,92	8116,98
651,328	8289,94
651,737	8559,26
652,145	8571,62
652,553	8692,69
652,961	8843,41
653,369	8786,58
653,777	8786,58
654,185	8700,1
654,593	8403,6
655,001	8499,96
655,409	8267,7
655,816	7714,22
656,224	7805,65
656,631	7474,55
657,039	7304,06
657,446	7227,46
657,854	7133,57
658,261	7160,75
658,668	6950,72
659,076	7244,76
659,483	7227,46
659,89	7407,84
660,297	7355,95
660,704	7370,77
661,111	7570,91
661,518	7504,2
661,924	7301,59
662,331	7276,88
662,738	7427,6
663,144	7318,88
663,551	6960,61
663,957	7037,2
664,364	6669,04
664,77	6718,46
665,177	6501,02
665,583	6421,96
665,989	6103,21
666,395	6291
666,801	5757,29
667,207	5885,78
667,613	5782
668,019	5492,91
668,425	5423,72
668,83	5166,75
669,236	5300,18
669,642	5045,68
670,047	4976,5
670,453	5050,62
670,858	4932,02
671,264	5023,44
671,669	4929,55
672,074	4835,66
672,48	4961,67
672,885	4946,84
673,29	5082,74
673,695	4946,84
674,1	5058,03
674,505	5119,81
674,909	5201,34
675,314	5142,04
675,719	5092,63
676,124	5060,51
676,528	5025,91
676,933	5319,95
677,337	5092,63
677,742	5117,34
678,146	5233,47
678,55	5250,76
678,955	5191,46
679,359	5369,36
679,763	5164,28
680,167	5137,1
680,571	5354,54
680,975	5339,71
681,379	5132,16
681,782	5161,81
682,186	5169,22
682,59	5174,17
682,993	5250,76
683,397	4924,61
683,8	4870,25
684,204	4887,54
684,607	4806,01
685,011	4835,66
685,414	4672,58
685,817	4566,33
686,22	4568,8
686,623	4479,85
687,026	4524,33
687,429	4507,03
687,832	4432,9
688,235	4287,12
688,638	4217,94
689,04	4235,23
689,443	4037,56
689,845	4168,52
690,248	4086,98
690,65	4017,8
691,053	3817,66
691,455	3862,13
691,857	3657,05
692,26	3748,47
692,662	3728,7
693,064	3674,34
693,466	3587,86
693,868	3632,34
694,27	3491,5
694,671	3422,32
695,073	3261,71
695,475	3464,32
695,877	3397,61
696,278	3353,13
696,68	3397,61
697,081	3360,54
697,483	3190,05
697,884	3311,13
698,285	3046,74
698,686	3143,11
699,087	3064,04
699,489	3143,11
699,89	3108,51
700,291	3076,39
700,691	2980,03
701,092	3054,16
701,493	3068,98
701,894	3022,03
702,294	3076,39
702,695	3051,68
703,096	3059,1
703,496	3086,28
703,896	3059,1
704,297	3140,64
704,697	3256,77
705,097	3056,63
705,497	3076,39
705,897	3130,75
706,297	3118,4
706,697	3022,03
707,097	3086,28
707,497	2982,5
707,897	3133,22
