Data from FLMS187131_13-03-31-345.txt Node
Date: Mon Dec 23 13:03:31 MSK 2024
User: FemtoLab1
Spectrometer: FLMS18713
Trigger mode: 0
Integration Time (sec): 6,500000E-2
Scans to average: 1
Electric dark correction enabled: true
Nonlinearity correction enabled: false
Boxcar width: 0
XAxis mode: Wavelengths
Number of Pixels in Spectrum: 2048
>>>>>Begin Spectral Data<<<<<
190,252	-18,38
190,715	-18,38
191,177	-18,38
191,64	-139,45
192,102	-87,56
192,565	-149,33
193,027	-92,5
193,49	-102,39
193,952	-85,09
194,415	-55,44
194,877	-94,97
195,339	-48,03
195,802	31,04
196,264	-23,32
196,726	35,98
197,188	100,22
197,65	43,39
198,112	23,63
198,574	129,88
199,036	129,88
199,498	157,05
199,96	134,82
200,421	154,58
200,883	196,59
201,345	300,37
201,807	290,48
202,268	297,89
202,73	288,01
203,191	354,72
203,653	327,55
204,114	288,01
204,576	330,02
205,037	418,97
205,498	384,38
205,96	364,61
206,421	349,78
206,882	436,26
207,343	451,09
207,804	409,08
208,265	359,67
208,726	401,67
209,187	354,72
209,648	446,15
210,109	337,43
210,57	347,31
211,031	431,32
211,492	409,08
211,952	438,73
212,413	428,85
212,874	414,03
213,334	317,66
213,795	441,21
214,255	401,67
214,716	465,91
215,176	414,03
215,636	399,2
216,097	426,38
216,557	372,02
217,017	448,62
217,477	374,49
217,938	381,9
218,398	433,79
218,858	372,02
219,318	367,08
219,778	453,56
220,238	446,15
220,698	399,2
221,157	376,96
221,617	384,38
222,077	364,61
222,537	389,32
222,996	357,2
223,456	394,26
223,915	389,32
224,375	404,14
224,834	421,44
225,294	404,14
225,753	359,67
226,213	441,21
226,672	354,72
227,131	451,09
227,59	379,43
228,05	401,67
228,509	268,24
228,968	394,26
229,427	426,38
229,886	411,56
230,345	406,61
230,804	354,72
231,263	359,67
231,721	369,55
232,18	406,61
232,639	394,26
233,098	339,9
233,556	401,67
234,015	352,25
234,473	389,32
234,932	354,72
235,39	426,38
235,849	396,73
236,307	372,02
236,765	401,67
237,224	409,08
237,682	349,78
238,14	433,79
238,598	416,5
239,056	386,85
239,514	396,73
239,972	406,61
240,43	399,2
240,888	448,62
241,346	399,2
241,804	453,56
242,262	399,2
242,72	376,96
243,177	372,02
243,635	376,96
244,093	354,72
244,55	391,79
245,008	404,14
245,465	347,31
245,923	423,91
246,38	384,38
246,837	386,85
247,295	404,14
247,752	448,62
248,209	414,03
248,666	433,79
249,123	374,49
249,58	438,73
250,037	401,67
250,494	473,33
250,951	443,68
251,408	414,03
251,865	386,85
252,322	352,25
252,779	463,44
253,235	394,26
253,692	404,14
254,149	379,43
254,605	431,32
255,062	438,73
255,518	448,62
255,975	433,79
256,431	441,21
256,887	411,56
257,344	411,56
257,8	436,26
258,256	409,08
258,712	401,67
259,168	436,26
259,625	465,91
260,081	453,56
260,537	391,79
260,992	376,96
261,448	423,91
261,904	389,32
262,36	433,79
262,816	431,32
263,272	379,43
263,727	394,26
264,183	475,8
264,638	463,44
265,094	416,5
265,549	451,09
266,005	433,79
266,46	418,97
266,916	399,2
267,371	394,26
267,826	416,5
268,281	468,39
268,737	401,67
269,192	421,44
269,647	374,49
270,102	433,79
270,557	446,15
271,012	372,02
271,467	411,56
271,921	428,85
272,376	399,2
272,831	453,56
273,286	480,74
273,74	362,14
274,195	475,8
274,649	386,85
275,104	428,85
275,558	446,15
276,013	470,86
276,467	423,91
276,922	468,39
277,376	441,21
277,83	453,56
278,284	411,56
278,739	502,98
279,193	406,61
279,647	426,38
280,101	394,26
280,555	426,38
281,009	404,14
281,462	404,14
281,916	404,14
282,37	418,97
282,824	344,84
283,278	448,62
283,731	399,2
284,185	389,32
284,638	436,26
285,092	448,62
285,545	372,02
285,999	396,73
286,452	416,5
286,905	423,91
287,359	421,44
287,812	490,62
288,265	448,62
288,718	433,79
289,171	458,5
289,624	426,38
290,077	451,09
290,53	470,86
290,983	409,08
291,436	460,97
291,889	438,73
292,342	446,15
292,794	381,9
293,247	436,26
293,7	460,97
294,152	446,15
294,605	384,38
295,057	460,97
295,51	428,85
295,962	441,21
296,414	433,79
296,867	453,56
297,319	446,15
297,771	406,61
298,223	396,73
298,675	502,98
299,128	468,39
299,58	433,79
300,032	453,56
300,483	418,97
300,935	394,26
301,387	460,97
301,839	458,5
302,291	394,26
302,742	460,97
303,194	414,03
303,646	456,03
304,097	376,96
304,549	369,55
305	421,44
305,451	394,26
305,903	423,91
306,354	443,68
306,805	436,26
307,257	406,61
307,708	498,04
308,159	438,73
308,61	418,97
309,061	374,49
309,512	488,15
309,963	431,32
310,414	490,62
310,865	372,02
311,315	404,14
311,766	441,21
312,217	441,21
312,668	480,74
313,118	396,73
313,569	418,97
314,019	396,73
314,47	456,03
314,92	544,98
315,37	468,39
315,821	426,38
316,271	483,21
316,721	448,62
317,171	448,62
317,622	406,61
318,072	374,49
318,522	394,26
318,972	406,61
319,422	411,56
319,872	468,39
320,321	463,44
320,771	438,73
321,221	443,68
321,671	421,44
322,12	451,09
322,57	433,79
323,019	416,5
323,469	468,39
323,918	416,5
324,368	441,21
324,817	473,33
325,267	384,38
325,716	490,62
326,165	389,32
326,614	431,32
327,063	354,72
327,512	448,62
327,961	436,26
328,41	436,26
328,859	460,97
329,308	443,68
329,757	416,5
330,206	458,5
330,655	468,39
331,103	456,03
331,552	364,61
332,001	498,04
332,449	460,97
332,898	396,73
333,346	478,27
333,794	428,85
334,243	436,26
334,691	495,56
335,139	409,08
335,588	470,86
336,036	416,5
336,484	414,03
336,932	522,74
337,38	431,32
337,828	416,5
338,276	458,5
338,724	418,97
339,172	458,5
339,619	441,21
340,067	418,97
340,515	426,38
340,962	411,56
341,41	386,85
341,858	451,09
342,305	436,26
342,753	448,62
343,2	490,62
343,647	468,39
344,095	451,09
344,542	404,14
344,989	411,56
345,436	436,26
345,883	470,86
346,33	495,56
346,777	473,33
347,224	465,91
347,671	409,08
348,118	465,91
348,565	458,5
349,012	443,68
349,458	418,97
349,905	451,09
350,352	493,09
350,798	391,79
351,245	423,91
351,691	495,56
352,138	426,38
352,584	443,68
353,03	490,62
353,477	463,44
353,923	409,08
354,369	443,68
354,815	448,62
355,261	465,91
355,707	473,33
356,153	446,15
356,599	399,2
357,045	416,5
357,491	463,44
357,937	468,39
358,382	433,79
358,828	495,56
359,274	483,21
359,719	428,85
360,165	530,16
360,61	458,5
361,056	394,26
361,501	349,78
361,947	426,38
362,392	391,79
362,837	416,5
363,282	379,43
363,727	406,61
364,173	473,33
364,618	386,85
365,063	463,44
365,508	441,21
365,952	453,56
366,397	423,91
366,842	458,5
367,287	448,62
367,732	490,62
368,176	379,43
368,621	438,73
369,065	436,26
369,51	406,61
369,954	456,03
370,399	525,22
370,843	426,38
371,287	399,2
371,732	384,38
372,176	483,21
372,62	483,21
373,064	374,49
373,508	416,5
373,952	409,08
374,396	453,56
374,84	488,15
375,284	374,49
375,728	458,5
376,172	500,51
376,615	379,43
377,059	446,15
377,503	374,49
377,946	431,32
378,39	490,62
378,833	465,91
379,277	453,56
379,72	433,79
380,163	500,51
380,607	470,86
381,05	473,33
381,493	438,73
381,936	409,08
382,379	475,8
382,822	490,62
383,265	448,62
383,708	416,5
384,151	401,67
384,594	404,14
385,037	376,96
385,479	426,38
385,922	428,85
386,365	416,5
386,807	473,33
387,25	423,91
387,692	458,5
388,135	406,61
388,577	428,85
389,019	443,68
389,461	512,86
389,904	456,03
390,346	423,91
390,788	421,44
391,23	399,2
391,672	409,08
392,114	458,5
392,556	418,97
392,998	431,32
393,44	441,21
393,881	441,21
394,323	475,8
394,765	441,21
395,206	436,26
395,648	396,73
396,09	421,44
396,531	438,73
396,972	426,38
397,414	443,68
397,855	448,62
398,296	416,5
398,738	446,15
399,179	488,15
399,62	414,03
400,061	421,44
400,502	384,38
400,943	433,79
401,384	446,15
401,825	399,2
402,265	421,44
402,706	498,04
403,147	468,39
403,588	418,97
404,028	465,91
404,469	451,09
404,909	446,15
405,35	500,51
405,79	460,97
406,23	463,44
406,671	391,79
407,111	522,74
407,551	490,62
407,991	441,21
408,431	418,97
408,871	500,51
409,311	458,5
409,751	465,91
410,191	446,15
410,631	401,67
411,071	505,45
411,511	436,26
411,95	483,21
412,39	502,98
412,83	441,21
413,269	428,85
413,709	493,09
414,148	418,97
414,587	542,51
415,027	465,91
415,466	381,9
415,905	399,2
416,345	421,44
416,784	384,38
417,223	423,91
417,662	480,74
418,101	456,03
418,54	451,09
418,979	507,92
419,417	473,33
419,856	436,26
420,295	399,2
420,734	460,97
421,172	460,97
421,611	433,79
422,049	418,97
422,488	426,38
422,926	436,26
423,364	451,09
423,803	448,62
424,241	406,61
424,679	438,73
425,117	438,73
425,555	416,5
425,994	446,15
426,432	463,44
426,87	465,91
427,307	490,62
427,745	438,73
428,183	512,86
428,621	438,73
429,058	438,73
429,496	446,15
429,934	421,44
430,371	532,63
430,809	475,8
431,246	426,38
431,684	428,85
432,121	465,91
432,558	458,5
432,995	438,73
433,433	453,56
433,87	431,32
434,307	399,2
434,744	441,21
435,181	510,39
435,618	542,51
436,055	643,82
436,491	530,16
436,928	515,33
437,365	465,91
437,801	537,57
438,238	507,92
438,675	460,97
439,111	498,04
439,548	498,04
439,984	436,26
440,42	451,09
440,857	495,56
441,293	505,45
441,729	490,62
442,165	512,86
442,601	540,04
443,037	448,62
443,473	557,34
443,909	451,09
444,345	522,74
444,781	530,16
445,217	505,45
445,652	535,1
446,088	441,21
446,524	498,04
446,959	589,46
447,395	547,45
447,83	542,51
448,266	544,98
448,701	579,57
449,136	480,74
449,572	544,98
450,007	557,34
450,442	562,28
450,877	559,81
451,312	540,04
451,747	537,57
452,182	525,22
452,617	557,34
453,052	574,63
453,486	569,69
453,921	594,4
454,356	596,87
454,79	525,22
455,225	488,15
455,66	510,39
456,094	502,98
456,528	584,52
456,963	527,69
457,397	485,68
457,831	495,56
458,265	527,69
458,7	542,51
459,134	500,51
459,568	448,62
460,002	522,74
460,436	436,26
460,87	507,92
461,303	535,1
461,737	564,75
462,171	468,39
462,605	483,21
463,038	525,22
463,472	512,86
463,905	463,44
464,339	485,68
464,772	473,33
465,205	478,27
465,639	448,62
466,072	483,21
466,505	468,39
466,938	517,8
467,371	500,51
467,804	520,27
468,237	498,04
468,67	475,8
469,103	460,97
469,536	480,74
469,969	525,22
470,402	470,86
470,834	498,04
471,267	411,56
471,699	431,32
472,132	458,5
472,564	401,67
472,997	446,15
473,429	480,74
473,861	431,32
474,294	540,04
474,726	525,22
475,158	502,98
475,59	490,62
476,022	480,74
476,454	441,21
476,886	512,86
477,318	527,69
477,75	500,51
478,181	505,45
478,613	530,16
479,045	527,69
479,476	490,62
479,908	460,97
480,339	478,27
480,771	584,52
481,202	470,86
481,634	490,62
482,065	559,81
482,496	446,15
482,927	547,45
483,358	510,39
483,789	465,91
484,22	535,1
484,651	493,09
485,082	480,74
485,513	495,56
485,944	502,98
486,375	562,28
486,805	448,62
487,236	559,81
487,667	517,8
488,097	547,45
488,527	478,27
488,958	544,98
489,388	559,81
489,819	530,16
490,249	485,68
490,679	460,97
491,109	448,62
491,539	614,17
491,969	475,8
492,399	577,1
492,829	599,34
493,259	579,57
493,689	473,33
494,119	552,39
494,548	574,63
494,978	490,62
495,408	569,69
495,837	572,16
496,267	572,16
496,696	601,81
497,126	544,98
497,555	668,53
497,984	606,75
498,413	641,35
498,843	666,06
499,272	656,17
499,701	698,18
500,13	757,48
500,559	794,54
500,988	816,78
501,417	841,49
501,845	1024,33
502,274	1108,34
502,703	1197,29
503,131	1434,5
503,56	1659,35
503,988	1958,32
504,417	2163,4
504,845	2578,51
505,274	2889,84
505,702	3319,77
506,13	3784,3
506,558	4342,72
506,987	4999,97
507,415	5447,2
507,843	6171,16
508,271	6863,01
508,699	7616,62
509,126	8202,22
509,554	8948,43
509,982	9622,97
510,41	10304,94
510,837	11278,46
511,265	12051,84
511,693	12909,24
512,12	13358,94
512,547	14263,28
512,975	15234,33
513,402	15829,81
513,829	16529,07
514,257	17332,1
514,684	18214,2
515,111	18765,21
515,538	19911,7
515,965	20514,59
516,392	21147,13
516,819	22014,41
517,246	22511,06
517,672	23069,47
518,099	23860,15
518,526	23958,99
518,952	24517,41
519,379	25179,6
519,805	25468,69
520,232	25607,06
520,658	26313,73
521,085	26212,42
521,511	26518,81
521,937	26674,48
522,363	26733,78
522,789	26158,07
523,215	26022,17
523,641	26007,34
524,067	25705,9
524,493	25216,66
524,919	24517,41
525,345	24302,44
525,771	23865,09
526,196	23645,19
526,622	23321,5
527,047	23079,36
527,473	22810,03
527,898	22427,05
528,324	22516
528,749	22021,82
529,174	22340,56
529,6	22098,42
530,025	22370,22
530,45	22330,68
530,875	22755,67
531,3	22960,75
531,725	23724,25
532,15	24482,81
532,575	25001,7
532,999	26222,31
533,424	26348,32
533,849	26568,23
534,273	26491,63
534,698	26365,62
535,122	25315,5
535,547	25078,29
535,971	24717,55
536,396	24127,01
536,82	23860,15
537,244	23692,13
537,668	23558,71
538,092	23971,34
538,517	24658,24
538,941	25463,75
539,364	26377,97
539,788	27946,98
540,212	28940,27
540,636	30262,19
541,06	31692,82
541,483	32041,22
541,907	33269,24
542,331	34106,87
542,754	34892,61
543,178	35710,47
543,601	36103,33
544,024	36933,55
544,448	37546,33
544,871	38364,18
545,294	38593,98
545,717	39177,1
546,14	39572,44
546,563	39033,79
546,986	39011,55
547,409	37921,9
547,832	36869,31
548,255	35455,97
548,677	33536,1
549,1	31843,55
549,522	30321,49
549,945	29103,35
550,368	28134,77
550,79	27430,57
551,212	27450,33
551,635	28087,82
552,057	28861,2
552,479	31080,05
552,901	33264,3
553,323	35581,98
553,745	37976,26
554,167	41143,92
554,589	43108,26
555,011	45549,49
555,433	46994,95
555,855	48252,62
556,277	48769,04
556,698	48672,67
557,12	48890,11
557,541	47528,66
557,963	46515,6
558,384	44981,19
558,806	43212,04
559,227	41956,84
559,648	39859,06
560,069	38448,19
560,49	38193,69
560,912	37150,99
561,333	36943,43
561,754	35969,91
562,174	36389,96
562,595	36881,66
563,016	37066,98
563,437	37417,84
563,858	37351,13
564,278	37600,68
564,699	37899,66
565,119	37044,74
565,54	36187,34
565,96	35609,16
566,38	33802,95
566,801	32745,42
567,221	31591,52
567,641	30373,38
568,061	28834,02
568,481	28325,02
568,901	26985,81
569,321	26395,27
569,741	25943,1
570,161	25841,79
570,581	25908,51
571,001	25861,56
571,42	26415,04
571,84	26298,91
572,259	26711,54
572,679	27097
573,098	27951,92
573,518	28302,78
573,937	28670,94
574,356	28698,12
574,775	28856,26
575,195	29184,89
575,614	29459,15
576,033	29283,72
576,452	29543,16
576,871	29340,55
577,29	29333,14
577,708	28950,15
578,127	28957,57
578,546	29229,36
578,964	29409,74
579,383	28893,32
579,801	29387,5
580,22	28819,2
580,638	28856,26
581,057	29276,31
581,475	28628,94
581,893	28866,14
582,311	28537,52
582,73	29093,46
583,148	29234,3
583,566	29039,11
583,984	28708,01
584,401	28609,17
584,819	29271,37
585,237	28819,2
585,655	28774,72
586,072	28717,89
586,49	29251,6
586,908	28955,1
587,325	29036,63
587,742	29711,18
588,16	30699,53
588,577	31243,12
588,994	32434,09
589,412	32663,88
589,829	33202,53
590,246	33247
590,663	33830,13
591,08	33896,84
591,497	34176,05
591,914	35092,75
592,33	35342,31
592,747	35332,42
593,164	35735,17
593,58	35945,2
593,997	35097,69
594,413	35826,6
594,83	35426,32
595,246	35794,48
595,663	34739,41
596,079	34922,26
596,495	34225,47
596,911	33862,25
597,327	33842,48
597,743	33736,24
598,159	33140,76
598,575	32016,51
598,991	31131,94
599,407	30291,84
599,823	29656,82
600,238	28616,59
600,654	28065,58
601,07	27326,79
601,485	27465,16
601,901	26879,56
602,316	26494,1
602,731	25822,03
603,147	25542,82
603,562	24984,4
603,977	24304,91
604,392	23820,62
604,807	23825,56
605,222	22955,81
605,637	22612,36
606,052	22795,21
606,467	22562,94
606,882	22091,01
607,296	21621,54
607,711	22009,47
608,125	21745,08
608,54	21826,62
608,954	21065,59
609,369	21339,86
609,783	21258,32
610,197	20922,28
610,612	20954,4
611,026	20603,54
611,44	20517,06
611,854	20309,51
612,268	20176,08
612,682	20171,14
613,096	20489,88
613,51	20260,09
613,923	20635,66
614,337	20727,08
614,751	20610,95
615,164	21243,5
615,578	21554,83
615,991	21174,31
616,405	20937,11
616,818	21097,71
617,231	21137,25
617,645	21124,89
618,058	21092,77
618,471	20830,86
618,884	21092,77
619,297	20895,1
619,71	20662,84
620,123	20269,97
620,536	19990,76
620,948	19751,09
621,361	19335,98
621,774	19101,25
622,186	18466,23
622,599	18355,04
623,011	18191,97
623,424	18122,78
623,836	18068,42
624,248	18048,66
624,661	18100,54
625,073	17915,23
625,485	17944,88
625,897	18372,34
626,309	18436,58
626,721	18241,38
627,133	18206,79
627,545	18231,5
627,956	17710,15
628,368	17895,46
628,78	17875,69
629,191	17517,42
629,603	17495,18
630,014	17141,85
630,426	17020,77
630,837	16580,96
631,248	16640,26
631,66	16484,59
632,071	15918,76
632,482	15540,72
632,893	15701,33
633,304	15518,48
633,715	15412,23
634,126	15340,58
634,536	15172,56
634,947	14974,89
635,358	14680,85
635,769	14525,19
636,179	14443,65
636,59	13998,89
637	13984,07
637,41	13541,78
637,821	13349,05
638,231	13373,76
638,641	13166,21
639,051	12882,06
639,462	12718,98
639,872	12424,95
640,282	12121,03
640,691	12022,19
641,101	12182,8
641,511	11883,82
641,921	11592,26
642,331	11406,95
642,74	11550,26
643,15	11159,86
643,559	10878,18
643,969	10722,51
644,378	10860,88
644,787	10744,75
645,197	10781,81
645,606	10542,14
646,015	10495,19
646,424	10653,33
646,833	10510,02
647,242	10579,2
647,651	10522,37
648,06	10302,46
648,469	10351,88
648,877	10492,72
649,286	10344,47
649,694	9993,61
650,103	10388,95
650,512	10146,8
650,92	10072,67
651,328	9845,35
651,737	10055,38
652,145	9788,52
652,553	9716,87
652,961	9655,1
653,369	9630,39
653,777	9420,36
654,185	9326,47
654,593	9249,87
655,001	8938,54
655,409	9049,73
655,816	8523,44
656,224	8412,25
656,631	8449,31
657,039	8288,7
657,446	8179,98
657,854	8091,03
658,261	8167,63
658,668	8261,52
659,076	8066,32
659,483	8189,87
659,89	7784,64
660,297	7942,78
660,704	7762,41
661,111	7974,9
661,518	7942,78
661,924	7868,65
662,331	7824,18
662,738	7873,6
663,144	7668,51
663,551	7512,85
663,957	7431,31
664,364	7033,5
664,77	7147,16
665,177	6887,72
665,583	6610,98
665,989	6517,09
666,395	6465,2
666,801	6442,96
667,207	6536,85
667,613	6225,52
668,019	6119,27
668,425	6042,68
668,83	5958,67
669,236	5803
669,642	5765,94
670,047	5711,58
670,453	5718,99
670,858	5612,75
671,264	5523,79
671,669	5600,39
672,074	5400,25
672,48	5387,9
672,885	5217,41
673,29	5108,69
673,695	5125,98
674,1	5195,17
674,505	5069,15
674,909	4990,09
675,314	4915,96
675,719	4987,61
676,124	4878,9
676,528	4767,71
676,933	4846,77
677,337	4740,53
677,742	4671,34
678,146	4631,81
678,55	4612,04
678,955	4463,79
679,359	4360,01
679,763	4409,43
680,167	4345,19
680,571	4355,07
680,975	4231,53
681,379	4273,53
681,782	4011,62
682,186	3944,91
682,59	4033,86
682,993	3981,97
683,397	3920,2
683,8	3863,37
684,204	3937,49
684,607	3823,83
685,011	3853,48
685,414	3722,53
685,817	3700,29
686,22	3742,29
686,623	3571,8
687,026	3492,74
687,429	3485,32
687,832	3386,49
688,235	3480,38
688,638	3440,85
689,04	3396,37
689,443	3342,01
689,845	3327,19
690,248	3314,83
690,65	3448,26
691,053	3218,47
691,455	3191,29
691,857	3287,65
692,26	3183,88
692,662	3206,11
693,064	3233,29
693,466	3280,24
693,868	3307,42
694,27	3166,58
694,671	3183,88
695,073	3112,22
695,475	3206,11
695,877	3238,24
696,278	3198,7
696,68	3097,4
697,081	3151,75
697,483	3164,11
697,884	3198,7
698,285	3218,47
698,686	3124,58
699,087	3186,35
699,489	3136,93
699,89	3139,4
700,291	3173,99
700,691	3062,8
701,092	3104,81
701,493	2976,32
701,894	3134,46
702,294	3067,74
702,695	2949,14
703,096	2924,43
703,496	2879,96
703,896	2805,83
704,297	2902,2
704,697	2887,37
705,097	2973,85
705,497	2931,85
705,897	2963,97
