Data from FLMS187131_13-12-49-950.txt Node
Date: Mon Dec 23 13:12:49 MSK 2024
User: FemtoLab1
Spectrometer: FLMS18713
Trigger mode: 0
Integration Time (sec): 3,800000E-2
Scans to average: 1
Electric dark correction enabled: true
Nonlinearity correction enabled: false
Boxcar width: 0
XAxis mode: Wavelengths
Number of Pixels in Spectrum: 2048
>>>>>Begin Spectral Data<<<<<
190,252	17,91
190,715	17,91
191,177	17,91
191,64	-66,1
192,102	-68,57
192,565	-58,68
193,027	-90,8
193,49	-90,8
193,952	-36,45
194,415	-41,39
194,877	-66,1
195,339	-43,86
195,802	-14,21
196,264	-6,79
196,726	15,44
197,188	8,03
197,65	54,98
198,112	45,09
198,574	77,21
199,036	69,8
199,498	178,52
199,96	129,1
200,421	203,23
200,883	237,82
201,345	284,77
201,807	304,54
202,268	339,13
202,73	297,12
203,191	403,37
203,653	321,83
204,114	356,42
204,576	279,83
205,037	413,25
205,498	410,78
205,96	415,72
206,421	477,5
206,882	467,61
207,343	445,38
207,804	489,85
208,265	428,08
208,726	487,38
209,187	462,67
209,648	433,02
210,109	430,55
210,57	442,9
211,031	437,96
211,492	420,67
211,952	376,19
212,413	435,49
212,874	450,32
213,334	447,85
213,795	420,67
214,255	457,73
214,716	472,55
215,176	405,84
215,636	393,49
216,097	415,72
216,557	442,9
217,017	430,55
217,477	447,85
217,938	391,02
218,398	497,26
218,858	465,14
219,318	445,38
219,778	383,6
220,238	400,9
220,698	388,54
221,157	353,95
221,617	457,73
222,077	440,43
222,537	395,96
222,996	428,08
223,456	415,72
223,915	442,9
224,375	371,25
224,834	433,02
225,294	462,67
225,753	462,67
226,213	410,78
226,672	410,78
227,131	405,84
227,59	366,31
228,05	445,38
228,509	420,67
228,968	405,84
229,427	353,95
229,886	413,25
230,345	344,07
230,804	435,49
231,263	437,96
231,721	391,02
232,18	391,02
232,639	400,9
233,098	378,66
233,556	363,84
234,015	440,43
234,473	410,78
234,932	489,85
235,39	408,31
235,849	465,14
236,307	405,84
236,765	415,72
237,224	430,55
237,682	383,6
238,14	403,37
238,598	413,25
239,056	437,96
239,514	400,9
239,972	366,31
240,43	361,37
240,888	440,43
241,346	462,67
241,804	455,26
242,262	393,49
242,72	440,43
243,177	470,08
243,635	415,72
244,093	447,85
244,55	420,67
245,008	425,61
245,465	391,02
245,923	393,49
246,38	462,67
246,837	376,19
247,295	442,9
247,752	420,67
248,209	470,08
248,666	455,26
249,123	393,49
249,58	405,84
250,037	410,78
250,494	460,2
250,951	368,78
251,408	381,13
251,865	512,09
252,322	415,72
252,779	455,26
253,235	452,79
253,692	410,78
254,149	410,78
254,605	487,38
255,062	437,96
255,518	430,55
255,975	415,72
256,431	430,55
256,887	433,02
257,344	428,08
257,8	445,38
258,256	442,9
258,712	430,55
259,168	445,38
259,625	383,6
260,081	482,44
260,537	465,14
260,992	455,26
261,448	447,85
261,904	415,72
262,36	475,03
262,816	452,79
263,272	428,08
263,727	413,25
264,183	423,14
264,638	452,79
265,094	440,43
265,549	447,85
266,005	425,61
266,46	470,08
266,916	494,79
267,371	484,91
267,826	442,9
268,281	358,89
268,737	381,13
269,192	477,5
269,647	428,08
270,102	346,54
270,557	447,85
271,012	479,97
271,467	462,67
271,921	477,5
272,376	388,54
272,831	423,14
273,286	395,96
273,74	440,43
274,195	428,08
274,649	541,74
275,104	465,14
275,558	433,02
276,013	450,32
276,467	457,73
276,922	465,14
277,376	437,96
277,83	445,38
278,284	415,72
278,739	452,79
279,193	452,79
279,647	467,61
280,101	492,32
280,555	418,2
281,009	430,55
281,462	410,78
281,916	398,43
282,37	460,2
282,824	447,85
283,278	475,03
283,731	440,43
284,185	472,55
284,638	489,85
285,092	512,09
285,545	442,9
285,999	445,38
286,452	465,14
286,905	460,2
287,359	450,32
287,812	386,07
288,265	358,89
288,718	423,14
289,171	381,13
289,624	445,38
290,077	408,31
290,53	452,79
290,983	479,97
291,436	435,49
291,889	457,73
292,342	428,08
292,794	470,08
293,247	445,38
293,7	437,96
294,152	433,02
294,605	482,44
295,057	455,26
295,51	517,03
295,962	452,79
296,414	489,85
296,867	445,38
297,319	442,9
297,771	467,61
298,223	420,67
298,675	455,26
299,128	482,44
299,58	455,26
300,032	472,55
300,483	465,14
300,935	442,9
301,387	544,21
301,839	462,67
302,291	430,55
302,742	442,9
303,194	504,68
303,646	477,5
304,097	475,03
304,549	420,67
305	475,03
305,451	462,67
305,903	428,08
306,354	462,67
306,805	475,03
307,257	437,96
307,708	420,67
308,159	452,79
308,61	479,97
309,061	482,44
309,512	452,79
309,963	470,08
310,414	440,43
310,865	470,08
311,315	440,43
311,766	479,97
312,217	435,49
312,668	440,43
313,118	450,32
313,569	420,67
314,019	470,08
314,47	433,02
314,92	504,68
315,37	450,32
315,821	479,97
316,271	430,55
316,721	499,73
317,171	467,61
317,622	494,79
318,072	440,43
318,522	400,9
318,972	445,38
319,422	408,31
319,872	457,73
320,321	425,61
320,771	465,14
321,221	526,91
321,671	428,08
322,12	472,55
322,57	497,26
323,019	497,26
323,469	472,55
323,918	467,61
324,368	465,14
324,817	452,79
325,267	477,5
325,716	445,38
326,165	472,55
326,614	437,96
327,063	430,55
327,512	472,55
327,961	477,5
328,41	460,2
328,859	428,08
329,308	499,73
329,757	440,43
330,206	457,73
330,655	484,91
331,103	457,73
331,552	494,79
332,001	430,55
332,449	477,5
332,898	447,85
333,346	408,31
333,794	457,73
334,243	465,14
334,691	418,2
335,139	418,2
335,588	437,96
336,036	437,96
336,484	447,85
336,932	442,9
337,38	437,96
337,828	487,38
338,276	457,73
338,724	482,44
339,172	509,62
339,619	487,38
340,067	477,5
340,515	462,67
340,962	529,38
341,41	484,91
341,858	452,79
342,305	428,08
342,753	445,38
343,2	470,08
343,647	536,8
344,095	524,44
344,542	428,08
344,989	457,73
345,436	475,03
345,883	467,61
346,33	517,03
346,777	462,67
347,224	507,15
347,671	497,26
348,118	502,21
348,565	472,55
349,012	430,55
349,458	536,8
349,905	482,44
350,352	484,91
350,798	470,08
351,245	524,44
351,691	467,61
352,138	470,08
352,584	517,03
353,03	534,33
353,477	507,15
353,923	507,15
354,369	460,2
354,815	418,2
355,261	517,03
355,707	408,31
356,153	467,61
356,599	430,55
357,045	457,73
357,491	467,61
357,937	556,56
358,382	452,79
358,828	450,32
359,274	462,67
359,719	517,03
360,165	492,32
360,61	460,2
361,056	529,38
361,501	425,61
361,947	487,38
362,392	445,38
362,837	435,49
363,282	440,43
363,727	418,2
364,173	482,44
364,618	477,5
365,063	388,54
365,508	529,38
365,952	467,61
366,397	410,78
366,842	418,2
367,287	428,08
367,732	440,43
368,176	482,44
368,621	460,2
369,065	403,37
369,51	482,44
369,954	465,14
370,399	445,38
370,843	470,08
371,287	460,2
371,732	549,15
372,176	393,49
372,62	457,73
373,064	489,85
373,508	494,79
373,952	479,97
374,396	371,25
374,84	447,85
375,284	435,49
375,728	507,15
376,172	470,08
376,615	499,73
377,059	447,85
377,503	418,2
377,946	452,79
378,39	430,55
378,833	435,49
379,277	487,38
379,72	452,79
380,163	479,97
380,607	475,03
381,05	492,32
381,493	403,37
381,936	475,03
382,379	410,78
382,822	457,73
383,265	391,02
383,708	460,2
384,151	457,73
384,594	465,14
385,037	452,79
385,479	460,2
385,922	450,32
386,365	472,55
386,807	487,38
387,25	470,08
387,692	455,26
388,135	489,85
388,577	455,26
389,019	472,55
389,461	475,03
389,904	472,55
390,346	475,03
390,788	447,85
391,23	494,79
391,672	447,85
392,114	484,91
392,556	433,02
392,998	502,21
393,44	428,08
393,881	428,08
394,323	383,6
394,765	425,61
395,206	470,08
395,648	492,32
396,09	477,5
396,531	420,67
396,972	507,15
397,414	410,78
397,855	440,43
398,296	462,67
398,738	381,13
399,179	452,79
399,62	430,55
400,061	470,08
400,502	455,26
400,943	440,43
401,384	425,61
401,825	494,79
402,265	470,08
402,706	492,32
403,147	415,72
403,588	482,44
404,028	517,03
404,469	475,03
404,909	440,43
405,35	437,96
405,79	534,33
406,23	428,08
406,671	383,6
407,111	440,43
407,551	487,38
407,991	452,79
408,431	447,85
408,871	435,49
409,311	386,07
409,751	437,96
410,191	460,2
410,631	487,38
411,071	482,44
411,511	497,26
411,95	487,38
412,39	470,08
412,83	467,61
413,269	435,49
413,709	462,67
414,148	447,85
414,587	484,91
415,027	437,96
415,466	497,26
415,905	499,73
416,345	502,21
416,784	413,25
417,223	477,5
417,662	477,5
418,101	499,73
418,54	494,79
418,979	479,97
419,417	477,5
419,856	482,44
420,295	475,03
420,734	502,21
421,172	450,32
421,611	457,73
422,049	455,26
422,488	418,2
422,926	494,79
423,364	445,38
423,803	497,26
424,241	467,61
424,679	502,21
425,117	467,61
425,555	512,09
425,994	482,44
426,432	531,86
426,87	539,27
427,307	502,21
427,745	455,26
428,183	455,26
428,621	460,2
429,058	489,85
429,496	529,38
429,934	462,67
430,371	531,86
430,809	514,56
431,246	465,14
431,684	460,2
432,121	470,08
432,558	534,33
432,995	497,26
433,433	497,26
433,87	524,44
434,307	519,5
434,744	467,61
435,181	462,67
435,618	546,68
436,055	551,62
436,491	494,79
436,928	497,26
437,365	578,8
437,801	472,55
438,238	435,49
438,675	472,55
439,111	442,9
439,548	484,91
439,984	475,03
440,42	492,32
440,857	598,57
441,293	504,68
441,729	512,09
442,165	536,8
442,601	519,5
443,037	588,69
443,473	517,03
443,909	568,92
444,345	605,98
444,781	479,97
445,217	578,8
445,652	492,32
446,088	479,97
446,524	507,15
446,959	554,09
447,395	519,5
447,83	583,74
448,266	494,79
448,701	536,8
449,136	576,33
449,572	549,15
450,007	517,03
450,442	492,32
450,877	596,1
451,312	546,68
451,747	539,27
452,182	541,74
452,617	603,51
453,052	596,1
453,486	566,45
453,921	559,04
454,356	588,69
454,79	596,1
455,225	571,39
455,66	655,4
456,094	687,52
456,528	687,52
456,963	645,52
457,397	613,39
457,831	655,4
458,265	697,4
458,7	801,18
459,134	778,94
459,568	744,35
460,002	778,94
460,436	835,77
460,87	803,65
461,303	890,13
461,737	1016,15
462,171	969,2
462,605	1161,93
463,038	1105,1
463,472	1144,63
463,905	1191,58
464,339	1287,94
464,772	1413,96
465,205	1468,32
465,639	1626,45
466,072	1621,51
466,505	1792
466,938	1856,24
467,371	2120,63
467,804	2140,39
468,237	2276,29
468,67	2548,09
469,103	2654,34
469,536	2931,07
469,969	3133,69
470,402	3225,11
470,834	3484,55
471,267	3865,07
471,699	4092,39
472,132	4277,7
472,564	4618,68
472,997	5016,49
473,429	5359,94
473,861	5671,27
474,294	6123,44
474,726	6605,26
475,158	7220,51
475,59	7376,18
476,022	7843,17
476,454	8332,41
476,886	8932,83
477,318	9513,48
477,75	10148,5
478,181	10447,47
478,613	11131,91
479,045	11845,99
479,476	12448,88
479,908	13269,21
480,339	13958,59
480,771	14759,15
481,202	16011,88
481,634	16357,81
482,065	17543,83
482,496	18717,49
482,927	19498,29
483,358	20368,03
483,789	21262,49
484,22	22379,33
484,651	23325,67
485,082	23933,51
485,513	25198,59
485,944	25912,68
486,375	27256,83
486,805	28220,47
487,236	29132,23
487,667	29982,21
488,097	30950,79
488,527	32191,17
488,958	33018,91
489,388	34321,06
489,819	34765,82
490,249	36742,52
490,679	36448,49
491,109	38309,05
491,539	39396,24
491,969	40814,52
492,399	41051,72
492,829	42000,54
493,259	42922,18
493,689	43841,34
494,119	44056,31
494,548	45301,63
494,978	45113,84
495,408	45776,04
495,837	46512,36
496,267	46467,88
496,696	47431,52
497,126	47055,95
497,555	48138,19
497,984	47735,44
498,413	48578,01
498,843	48501,41
499,272	48229,61
499,701	49022,76
500,13	48933,81
500,559	49494,7
500,988	49840,62
501,417	50080,3
501,845	50809,21
502,274	51125,48
502,703	51622,12
503,131	51968,05
503,56	52326,32
503,988	52610,47
504,417	53055,23
504,845	52939,1
505,274	53289,96
505,702	52929,22
506,13	52736,49
506,558	52533,88
506,987	53433,28
507,415	52941,57
507,843	53245,49
508,271	52724,13
508,699	53176,3
509,126	53126,89
509,554	52926,75
509,982	52879,8
510,41	52645,07
510,837	52948,98
511,265	52672,25
511,693	52454,81
512,12	51733,31
512,547	51735,78
512,975	51145,25
513,402	51565,29
513,829	51288,56
514,257	50586,83
514,684	50124,77
515,111	50297,74
515,538	50216,2
515,965	49702,25
516,392	49519,41
516,819	49507,06
517,246	49292,09
517,672	49057,36
518,099	49393,4
518,526	48946,17
518,952	49247,61
519,379	48461,88
519,805	48592,83
520,232	47876,28
520,658	48175,25
521,085	48414,93
521,511	48363,04
521,937	47624,25
522,363	47686,02
522,789	46969,47
523,215	47159,73
523,641	47023,83
524,067	47001,59
524,493	46749,56
524,919	46964,53
525,345	46621,07
525,771	46858,28
526,196	46606,25
526,622	46826,16
527,047	46616,13
527,473	46796,51
527,898	46979,35
528,324	47698,38
528,749	47327,74
529,174	47841,69
529,6	47555,07
530,025	47394,46
530,45	48264,21
530,875	47648,96
531,3	48602,72
531,725	48192,55
532,15	48214,79
532,575	48165,37
532,999	48600,25
533,424	48741,08
533,849	48704,02
534,273	49005,47
534,698	49020,29
535,122	48382,81
535,547	48538,47
535,971	48494
536,396	48387,75
536,82	48034,41
537,244	48180,2
537,668	48199,96
538,092	48014,65
538,517	47920,75
538,941	47686,02
539,364	47149,84
539,788	47891,1
540,212	47102,9
540,636	47051,01
541,06	46848,4
541,483	46700,14
541,907	46586,48
542,331	46729,79
542,754	46576,6
543,178	45748,86
543,601	46010,77
544,024	45810,63
544,448	45442,47
544,871	45672,26
545,294	45810,63
545,717	45383,17
546,14	44755,56
546,563	44921,11
546,986	44676,5
547,409	44379,99
547,832	44021,71
548,255	43964,88
548,677	43890,76
549,1	43757,33
549,522	43421,29
549,945	43065,49
550,368	42645,44
550,79	43137,14
551,212	42759,1
551,635	43065,49
552,057	42447,77
552,479	42638,03
552,901	42341,52
553,323	42072,2
553,745	42077,14
554,167	42292,1
554,589	41879,47
555,011	41889,35
555,433	41629,91
555,855	41474,24
556,277	41785,57
556,698	41632,38
557,12	41434,71
557,541	41553,31
557,963	41202,45
558,384	41323,52
558,806	41286,46
559,227	41202,45
559,648	41034,43
560,069	41111,02
560,49	40970,19
560,912	41004,78
561,333	40819,46
561,754	40265,99
562,174	40256,1
562,595	40466,13
563,016	40177,03
563,437	40307,99
563,858	39996,66
564,278	40001,6
564,699	40219,04
565,119	39289,99
565,54	39462,95
565,96	39267,75
566,38	38855,12
566,801	39265,28
567,221	38810,64
567,641	38536,37
568,061	38173,16
568,481	38479,54
568,901	38402,95
569,321	38057,02
569,741	38108,91
570,161	38103,97
570,581	37634,5
571,001	38071,85
571,42	37859,35
571,84	37795,11
572,259	38084,2
572,679	38022,43
573,098	37911,24
573,518	38249,75
573,937	37906,3
574,356	37950,78
574,775	37891,48
575,195	37923,6
575,614	38271,99
576,033	37649,33
576,452	37632,03
576,871	37350,35
577,29	37209,51
577,708	36784,52
578,127	36320
578,546	36534,97
578,964	35914,78
579,383	35744,29
579,801	35195,75
580,22	34825,12
580,638	34459,43
581,057	34291,41
581,475	33782,41
581,893	34274,12
582,311	33401,9
582,73	32892,9
583,148	32665,58
583,566	32588,98
583,984	32136,81
584,401	32171,4
584,819	31734,06
585,237	31457,32
585,655	30725,94
586,072	30570,27
586,49	30735,82
586,908	30293,54
587,325	30051,39
587,742	29749,94
588,16	29376,84
588,577	29413,91
588,994	29381,78
589,412	28692,41
589,829	28833,25
590,246	29065,51
590,663	28887,61
591,08	28554,04
591,497	28339,08
591,914	28279,77
592,33	28242,71
592,747	28311,9
593,164	28482,39
593,58	28250,12
593,997	28166,11
594,413	28425,56
594,83	28025,27
595,246	28558,98
595,663	27923,97
596,079	28470,03
596,495	28087,05
596,911	28173,53
597,327	28237,77
597,743	28166,11
598,159	27886,91
598,575	28099,4
598,991	27427,32
599,407	27647,23
599,823	27452,03
600,238	27328,49
600,654	27375,43
601,07	27108,58
601,485	27197,53
601,901	26799,72
602,316	26199,3
602,731	25653,24
603,147	25618,64
603,562	25346,85
603,977	25574,17
604,392	24531,46
604,807	24314,02
605,222	24197,89
605,637	24146
606,052	23755,6
606,467	23382,5
606,882	23071,17
607,296	23011,87
607,711	22646,18
608,125	22500,4
608,54	22253,31
608,954	21860,44
609,369	21776,43
609,783	21811,03
610,197	21398,39
610,612	21601
611,026	21052,47
611,44	20699,13
611,854	20815,26
612,268	20891,86
612,682	20251,9
613,096	20392,74
613,51	19868,92
613,923	19943,04
614,337	19950,46
614,751	19137,54
615,164	19488,4
615,578	19626,77
615,991	19293,2
616,405	19140,01
616,818	19102,95
617,231	18695,25
617,645	18556,88
618,058	18875,63
618,471	18547
618,884	18472,87
619,297	18537,12
619,71	18191,19
620,123	18131,89
620,536	17929,28
620,948	17719,26
621,361	18042,94
621,774	17711,84
622,186	17642,66
622,599	17867,51
623,011	17301,68
623,424	17726,67
623,836	17279,44
624,248	17299,21
624,661	17188,02
625,073	17029,88
625,485	17178,14
625,897	17052,12
626,309	16938,46
626,721	16963,17
627,133	16686,43
627,545	16913,75
627,956	16592,54
628,368	16585,13
628,78	16844,57
629,191	16365,22
629,603	16602,42
630,014	16407,22
630,426	16320,74
630,837	16251,56
631,248	16165,08
631,66	16278,74
632,071	16315,8
632,482	16137,9
632,893	15712,91
633,304	15987,17
633,715	15920,46
634,126	15972,35
634,536	15804,33
634,947	15705,49
635,358	15404,05
635,769	15418,87
636,179	15530,06
636,59	15446,05
637	15347,22
637,41	15320,04
637,821	15223,67
638,231	15045,77
638,641	15176,73
639,051	15033,42
639,462	14991,41
639,872	15169,32
640,282	14685,02
640,691	14974,12
641,101	14388,52
641,511	14628,19
641,921	14583,72
642,331	14608,43
642,74	14195,79
643,15	14247,68
643,559	14220,5
643,969	14099,43
644,378	14388,52
644,787	14077,19
645,197	13837,51
645,606	13837,51
646,015	13644,79
646,424	13827,63
646,833	13518,77
647,242	13597,84
647,651	13212,38
648,06	13412,52
648,469	13251,92
648,877	13254,39
649,286	12933,17
649,694	12636,67
650,103	12930,7
650,512	12755,27
650,92	12807,16
651,328	12527,95
651,737	12463,71
652,145	12485,95
652,553	12290,75
652,961	12527,95
653,369	12226,5
653,777	12075,78
654,185	12065,9
654,593	11865,76
655,001	11668,09
655,409	11912,7
655,816	11421
656,224	11514,89
656,631	11430,88
657,039	11183,79
657,446	11181,32
657,854	11055,31
658,261	10879,88
658,668	10941,65
659,076	10832,93
659,483	10608,08
659,89	10407,94
660,297	10343,7
660,704	10188,03
661,111	10276,98
661,518	10212,74
661,924	9911,29
662,331	9716,1
662,738	9706,21
663,144	9488,78
663,551	9674,09
663,957	9241,69
664,364	9100,85
664,77	9224,39
665,177	8942,71
665,583	8960,01
665,989	8937,77
666,395	8579,49
666,801	8364,53
667,207	8490,54
667,613	8213,8
668,019	8339,82
668,425	8082,85
668,83	8107,56
669,236	7984,01
669,642	7766,58
670,047	7764,1
670,453	7724,57
670,858	7445,36
671,264	7487,37
671,669	7462,66
672,074	7171,1
672,48	7082,14
672,885	7050,02
673,29	6943,77
673,695	7064,85
674,1	6904,24
674,505	6741,16
674,909	6595,38
675,314	6597,85
675,719	6558,32
676,124	6365,59
676,528	6476,78
676,933	6442,19
677,337	6083,91
677,742	6148,15
678,146	6041,91
678,55	6091,32
678,955	5994,96
679,359	5960,37
679,763	5868,94
680,167	5676,22
680,571	5592,21
680,975	5747,87
681,379	5587,26
681,782	5525,49
682,186	5379,71
682,59	5446,42
682,993	5372,3
683,397	5325,35
683,8	5364,89
684,204	5280,88
684,607	5177,1
685,011	5090,62
685,414	5016,49
685,817	5001,67
686,22	5147,45
686,623	4863,3
687,026	4930,01
687,429	4848,47
687,832	4722,46
688,235	4645,86
688,638	4623,62
689,04	4601,39
689,443	4640,92
689,845	4616,21
690,248	4569,26
690,65	4403,72
691,053	4433,37
691,455	4299,94
691,857	4317,24
692,26	4307,35
692,662	4245,58
693,064	4146,74
693,466	4262,88
693,868	4077,56
694,27	4018,26
694,671	4057,79
695,073	4067,68
695,475	3852,71
695,877	3919,42
696,278	3944,13
696,68	3840,36
697,081	3889,77
697,483	3865,07
697,884	3835,41
698,285	3872,48
698,686	3701,99
699,087	3682,22
699,489	3630,33
699,89	3605,62
700,291	3578,44
700,691	3568,56
701,092	3538,91
701,493	3595,74
701,894	3449,96
702,294	3437,6
